SpectraSuite Data File
++++++++++++++++++++++++++++++++++++
Date: Fri Oct 02 18:22:26 EDT 2015
User: lab3
Dark Spectrum Present: No
Reference Spectrum Present: No
Number of Sampled Component Spectra: 1
Spectrometers: USB2E7196
Integration Time (usec): 46000 (USB2E7196)
Spectra Averaged: 1500 (USB2E7196)
Boxcar Smoothing: 10 (USB2E7196)
Correct for Electrical Dark: No (USB2E7196)
Strobe/Lamp Enabled: No (USB2E7196)
Correct for Detector Non-linearity: No (USB2E7196)
Correct for Stray Light: No (USB2E7196)
Number of Pixels in Processed Spectrum: 2048
>>>>>Begin Processed Spectral Data<<<<<
339.09	0.00
339.48	215.64
339.86	217.14
340.24	218.36
340.63	219.87
341.01	223.08
341.39	222.62
341.78	223.98
342.16	225.28
342.54	225.65
342.93	214.00
343.31	224.80
343.69	225.33
344.07	225.80
344.46	226.23
344.84	226.62
345.22	226.85
345.60	227.10
345.99	227.29
346.37	227.42
346.75	227.52
347.13	227.59
347.52	227.64
347.90	227.75
348.28	227.78
348.66	227.84
349.05	227.83
349.43	227.87
349.81	227.92
350.19	227.96
350.57	228.02
350.96	228.11
351.34	228.20
351.72	228.30
352.10	228.40
352.48	228.47
352.87	228.51
353.25	228.57
353.63	228.63
354.01	228.69
354.39	228.76
354.77	228.82
355.15	228.93
355.54	228.98
355.92	229.00
356.30	229.08
356.68	229.23
357.06	229.31
357.44	229.35
357.82	229.42
358.20	229.53
358.58	229.59
358.97	229.65
359.35	229.74
359.73	229.81
360.11	229.86
360.49	229.91
360.87	229.97
361.25	230.03
361.63	230.12
362.01	230.18
362.39	230.22
362.77	230.26
363.15	230.29
363.53	230.32
363.91	230.35
364.29	230.37
364.67	230.26
365.05	230.28
365.43	230.33
365.81	230.36
366.19	230.38
366.57	230.43
366.95	230.44
367.33	230.40
367.71	230.41
368.09	230.43
368.47	230.43
368.85	230.43
369.23	230.44
369.61	230.38
369.99	230.40
370.37	230.40
370.75	230.49
371.13	230.46
371.51	230.42
371.89	230.42
372.27	230.40
372.65	230.38
373.03	230.35
373.41	230.30
373.78	230.25
374.16	230.15
374.54	230.07
374.92	230.01
375.30	229.99
375.68	229.91
376.06	229.88
376.44	229.82
376.82	229.77
377.19	229.73
377.57	229.68
377.95	229.60
378.33	229.54
378.71	229.38
379.09	229.34
379.47	229.31
379.84	229.23
380.22	229.17
380.60	229.10
380.98	229.06
381.36	229.01
381.73	228.95
382.11	228.93
382.49	228.90
382.87	228.84
383.25	228.79
383.62	228.89
384.00	228.81
384.38	228.76
384.76	228.74
385.13	228.73
385.51	228.69
385.89	228.64
386.27	228.61
386.64	228.60
387.02	228.56
387.40	228.50
387.78	228.49
388.15	228.46
388.53	228.43
388.91	228.40
389.29	228.37
389.66	228.37
390.04	228.32
390.42	228.32
390.79	228.30
391.17	228.28
391.55	228.13
391.92	228.12
392.30	228.12
392.68	228.09
393.05	228.06
393.43	228.06
393.81	228.06
394.18	228.02
394.56	228.01
394.94	228.04
395.31	228.04
395.69	228.08
396.06	228.11
396.44	228.12
396.82	228.13
397.19	228.21
397.57	228.22
397.95	228.27
398.32	228.25
398.70	228.29
399.07	228.35
399.45	228.40
399.82	228.44
400.20	228.49
400.58	228.54
400.95	228.56
401.33	228.64
401.70	228.79
402.08	228.89
402.45	228.97
402.83	229.08
403.20	229.19
403.58	229.28
403.95	229.41
404.33	229.56
404.71	229.70
405.08	229.90
405.46	230.06
405.83	230.24
406.21	230.43
406.58	230.64
406.96	230.84
407.33	231.08
407.70	231.36
408.08	231.74
408.45	232.06
408.83	232.40
409.20	232.71
409.58	233.00
409.95	233.41
410.33	233.84
410.70	234.24
411.08	234.71
411.45	235.20
411.82	235.70
412.20	236.28
412.57	236.96
412.95	237.49
413.32	238.19
413.69	238.90
414.07	239.67
414.44	240.51
414.82	241.35
415.19	242.35
415.56	243.35
415.94	244.37
416.31	245.54
416.68	246.72
417.06	248.07
417.43	249.32
417.81	250.77
418.18	252.26
418.55	253.88
418.93	255.57
419.30	257.34
419.67	259.21
420.04	261.12
420.42	263.12
420.79	265.45
421.16	267.77
421.54	270.14
421.91	272.63
422.28	275.19
422.66	277.96
423.03	280.60
423.40	283.38
423.77	286.34
424.15	289.37
424.52	292.54
424.89	295.97
425.26	299.39
425.64	302.56
426.01	306.12
426.38	309.77
426.75	313.52
427.13	317.36
427.50	321.40
427.87	325.59
428.24	329.82
428.61	333.90
428.99	338.31
429.36	343.12
429.73	347.72
430.10	352.34
430.47	357.06
430.85	361.93
431.22	367.14
431.59	372.50
431.96	377.73
432.33	383.54
432.70	389.08
433.08	395.63
433.45	401.81
433.82	407.90
434.19	414.68
434.56	421.39
434.93	427.88
435.30	434.28
435.68	441.52
436.05	448.61
436.42	455.63
436.79	462.07
437.16	469.01
437.53	476.46
437.90	483.88
438.27	491.17
438.64	499.00
439.01	506.12
439.38	512.62
439.75	518.89
440.13	525.94
440.50	532.65
440.87	537.95
441.24	543.76
441.61	550.10
441.98	554.70
442.35	560.18
442.72	565.74
443.09	571.03
443.46	574.35
443.83	576.74
444.20	578.74
444.57	581.76
444.94	583.43
445.31	585.13
445.68	586.57
446.05	587.56
446.42	587.07
446.79	586.40
447.16	585.80
447.53	585.23
447.90	582.83
448.27	580.51
448.64	577.08
449.01	574.66
449.37	569.99
449.74	565.75
450.11	560.29
450.48	554.38
450.85	548.44
451.22	543.37
451.59	538.43
451.96	533.94
452.33	527.46
452.70	521.72
453.07	514.75
453.43	507.81
453.80	501.08
454.17	494.64
454.54	488.70
454.91	482.01
455.28	475.76
455.65	469.87
456.02	463.67
456.38	458.65
456.75	452.21
457.12	447.02
457.49	441.79
457.86	436.88
458.23	432.58
458.59	427.84
458.96	422.96
459.33	418.68
459.70	414.31
460.07	411.02
460.43	407.14
460.80	403.53
461.17	400.37
461.54	396.97
461.91	393.80
462.27	390.57
462.64	387.99
463.01	384.97
463.38	381.92
463.74	379.18
464.11	376.79
464.48	374.63
464.85	372.27
465.21	370.51
465.58	368.53
465.95	366.25
466.32	364.44
466.68	362.66
467.05	360.88
467.42	359.14
467.78	357.25
468.15	355.51
468.52	354.25
468.88	352.54
469.25	350.98
469.62	349.76
469.98	348.41
470.35	347.20
470.72	346.12
471.08	345.03
471.45	344.10
471.82	343.06
472.18	341.95
472.55	341.24
472.92	340.34
473.28	339.65
473.65	338.90
474.02	338.18
474.38	337.58
474.75	337.23
475.11	336.73
475.48	336.51
475.85	336.27
476.21	336.15
476.58	336.07
476.94	336.20
477.31	336.26
477.67	336.33
478.04	336.52
478.41	336.79
478.77	337.19
479.14	337.44
479.50	337.91
479.87	338.55
480.23	339.20
480.60	339.84
480.96	340.47
481.33	341.39
481.69	342.33
482.06	343.27
482.42	344.11
482.79	345.18
483.15	346.39
483.52	347.78
483.88	349.11
484.25	350.54
484.61	352.03
484.98	353.66
485.34	355.49
485.71	357.40
486.07	359.42
486.44	361.44
486.80	363.71
487.17	366.08
487.53	368.67
487.90	371.34
488.26	374.28
488.62	377.36
488.99	380.47
489.35	383.73
489.72	387.27
490.08	391.00
490.44	394.85
490.81	398.85
491.17	402.98
491.54	407.40
491.90	411.97
492.26	416.85
492.63	421.96
492.99	427.28
493.36	432.79
493.72	438.61
494.08	444.57
494.45	450.90
494.81	457.49
495.17	464.24
495.54	471.37
495.90	478.78
496.26	486.38
496.63	494.22
496.99	502.37
497.35	510.91
497.72	519.72
498.08	528.73
498.44	538.06
498.80	547.94
499.17	558.08
499.53	568.49
499.89	579.30
500.26	590.31
500.62	601.64
500.98	613.57
501.34	625.68
501.71	638.30
502.07	651.10
502.43	664.42
502.79	677.96
503.16	691.96
503.52	706.17
503.88	720.82
504.24	735.89
504.60	751.17
504.97	766.92
505.33	783.09
505.69	800.16
506.05	817.52
506.41	834.82
506.78	852.32
507.14	870.37
507.50	888.83
507.86	907.68
508.22	926.74
508.59	945.64
508.95	965.37
509.31	985.85
509.67	1006.94
510.03	1028.07
510.39	1049.32
510.75	1070.74
511.12	1092.44
511.48	1114.23
511.84	1136.17
512.20	1158.56
512.56	1181.78
512.92	1204.98
513.28	1227.86
513.64	1251.05
514.00	1274.65
514.37	1298.54
514.73	1322.44
515.09	1346.28
515.45	1370.47
515.81	1394.75
516.17	1419.27
516.53	1443.25
516.89	1467.17
517.25	1491.32
517.61	1515.36
517.97	1539.86
518.33	1563.87
518.69	1587.83
519.05	1612.37
519.41	1637.19
519.77	1662.05
520.13	1686.32
520.49	1710.55
520.85	1735.17
521.21	1759.20
521.57	1783.81
521.93	1807.85
522.29	1832.42
522.65	1856.51
523.01	1880.54
523.37	1904.30
523.73	1928.69
524.09	1952.84
524.45	1976.76
524.81	2000.30
525.17	2023.76
525.53	2046.63
525.89	2069.97
526.25	2093.37
526.61	2115.75
526.97	2138.23
527.33	2160.81
527.68	2183.00
528.04	2204.44
528.40	2224.90
528.76	2245.89
529.12	2266.22
529.48	2286.26
529.84	2304.58
530.20	2323.54
530.56	2341.90
530.91	2360.43
531.27	2378.58
531.63	2395.97
531.99	2413.03
532.35	2429.39
532.71	2445.75
533.07	2462.77
533.42	2478.09
533.78	2494.38
534.14	2510.86
534.50	2526.32
534.86	2541.59
535.21	2555.01
535.57	2568.94
535.93	2582.70
536.29	2595.20
536.65	2607.64
537.00	2619.43
537.36	2632.10
537.72	2643.22
538.08	2654.01
538.44	2664.15
538.79	2673.88
539.15	2682.75
539.51	2691.16
539.87	2698.96
540.22	2704.97
540.58	2711.13
540.94	2718.45
541.29	2724.04
541.65	2727.90
542.01	2731.20
542.37	2733.83
542.72	2737.79
543.08	2740.02
543.44	2742.80
543.79	2744.53
544.15	2745.44
544.51	2746.75
544.87	2746.95
545.22	2746.43
545.58	2745.20
545.94	2743.97
546.29	2741.44
546.65	2738.99
547.01	2736.52
547.36	2734.72
547.72	2732.87
548.07	2729.30
548.43	2724.20
548.79	2718.34
549.14	2713.75
549.50	2709.28
549.86	2703.88
550.21	2697.35
550.57	2691.79
550.92	2683.89
551.28	2676.71
551.64	2669.72
551.99	2662.23
552.35	2654.11
552.70	2646.28
553.06	2638.71
553.41	2630.51
553.77	2622.12
554.13	2613.58
554.48	2604.14
554.84	2593.58
555.19	2583.62
555.55	2573.62
555.90	2563.62
556.26	2554.14
556.61	2543.53
556.97	2531.29
557.32	2519.60
557.68	2507.78
558.03	2495.82
558.39	2485.01
558.74	2474.39
559.10	2462.09
559.45	2450.12
559.81	2438.70
560.16	2426.62
560.52	2414.73
560.87	2403.15
561.23	2390.70
561.58	2378.52
561.94	2365.91
562.29	2352.70
562.64	2340.18
563.00	2327.33
563.35	2315.01
563.71	2302.39
564.06	2289.63
564.42	2277.65
564.77	2264.93
565.12	2252.21
565.48	2239.37
565.83	2226.58
566.19	2213.88
566.54	2201.12
566.89	2187.10
567.25	2173.37
567.60	2160.92
567.96	2147.63
568.31	2132.97
568.66	2119.13
569.02	2106.28
569.37	2093.42
569.72	2081.09
570.08	2067.42
570.43	2053.47
570.78	2039.21
571.14	2024.31
571.49	2010.14
571.84	1996.52
572.20	1981.63
572.55	1967.08
572.90	1952.28
573.26	1937.47
573.61	1922.14
573.96	1907.25
574.31	1892.72
574.67	1878.09
575.02	1862.52
575.37	1847.00
575.72	1832.38
576.08	1818.01
576.43	1802.44
576.78	1787.35
577.13	1772.57
577.49	1758.13
577.84	1744.25
578.19	1729.44
578.54	1714.84
578.90	1699.72
579.25	1684.50
579.60	1670.90
579.95	1657.07
580.30	1643.14
580.66	1628.99
581.01	1614.72
581.36	1600.48
581.71	1587.21
582.06	1573.78
582.42	1560.65
582.77	1547.48
583.12	1534.24
583.47	1520.92
583.82	1507.73
584.17	1494.18
584.53	1480.25
584.88	1466.70
585.23	1452.68
585.58	1439.60
585.93	1426.71
586.28	1414.58
586.63	1402.46
586.98	1389.79
587.34	1377.17
587.69	1364.32
588.04	1351.76
588.39	1339.62
588.74	1327.58
589.09	1315.36
589.44	1302.76
589.79	1290.79
590.14	1278.89
590.49	1266.93
590.84	1255.11
591.19	1243.71
591.54	1232.09
591.89	1220.65
592.25	1209.37
592.60	1197.78
592.95	1186.55
593.30	1175.54
593.65	1164.18
594.00	1152.89
594.35	1142.25
594.70	1131.22
595.05	1121.07
595.40	1110.81
595.75	1100.40
596.10	1090.54
596.45	1080.29
596.80	1070.41
597.15	1060.27
597.50	1050.36
597.85	1040.81
598.19	1031.12
598.54	1021.49
598.89	1012.28
599.24	1003.42
599.59	994.40
599.94	986.29
600.29	977.92
600.64	969.26
600.99	960.25
601.34	951.64
601.69	942.69
602.04	934.41
602.39	925.97
602.74	917.54
603.08	909.06
603.43	900.58
603.78	892.29
604.13	884.18
604.48	876.03
604.83	868.07
605.18	860.01
605.53	852.09
605.87	843.98
606.22	836.27
606.57	828.44
606.92	820.51
607.27	812.47
607.62	804.84
607.96	797.60
608.31	790.81
608.66	783.80
609.01	777.08
609.36	770.47
609.70	763.57
610.05	756.73
610.40	750.14
610.75	743.54
611.10	737.28
611.44	730.85
611.79	724.54
612.14	718.14
612.49	711.85
612.83	705.87
613.18	700.01
613.53	694.02
613.88	688.09
614.22	682.60
614.57	677.02
614.92	671.23
615.27	665.62
615.61	660.04
615.96	654.53
616.31	649.03
616.65	643.57
617.00	638.40
617.35	633.28
617.70	628.26
618.04	623.21
618.39	618.14
618.74	613.32
619.08	608.51
619.43	603.86
619.78	599.21
620.12	594.47
620.47	589.96
620.82	585.53
621.16	581.11
621.51	576.56
621.85	572.08
622.20	567.82
622.55	563.55
622.89	559.34
623.24	555.15
623.59	551.01
623.93	547.04
624.28	543.12
624.62	539.31
624.97	535.51
625.32	531.73
625.66	527.88
626.01	524.00
626.35	520.22
626.70	516.47
627.04	512.90
627.39	509.31
627.73	505.85
628.08	502.50
628.43	499.14
628.77	495.87
629.12	492.71
629.46	489.54
629.81	486.31
630.15	483.09
630.50	479.96
630.84	476.87
631.19	473.84
631.53	470.93
631.88	467.99
632.22	465.07
632.57	462.43
632.91	459.82
633.26	457.31
633.60	454.81
633.95	452.38
634.29	449.86
634.64	447.41
634.98	444.74
635.32	442.24
635.67	439.93
636.01	437.54
636.36	435.21
636.70	433.05
637.05	430.85
637.39	428.68
637.73	426.54
638.08	424.53
638.42	422.48
638.77	420.31
639.11	418.07
639.45	415.93
639.80	413.73
640.14	411.66
640.49	409.55
640.83	407.41
641.17	405.36
641.52	403.36
641.86	401.38
642.20	399.61
642.55	397.68
642.89	395.79
643.23	393.98
643.58	392.35
643.92	390.56
644.26	388.84
644.61	387.18
644.95	385.47
645.29	383.70
645.64	381.94
645.98	380.27
646.32	378.74
646.66	377.17
647.01	375.62
647.35	374.12
647.69	372.61
648.04	371.24
648.38	369.78
648.72	368.34
649.06	366.90
649.41	365.49
649.75	364.13
650.09	362.76
650.43	361.42
650.78	360.02
651.12	358.65
651.46	357.33
651.80	356.07
652.14	354.82
652.49	353.59
652.83	352.37
653.17	351.20
653.51	350.04
653.85	348.96
654.20	347.81
654.54	346.60
654.88	345.47
655.22	344.36
655.56	343.24
655.90	342.18
656.25	341.16
656.59	340.11
656.93	339.12
657.27	338.14
657.61	337.10
657.95	336.11
658.29	335.12
658.64	334.20
658.98	333.24
659.32	332.31
659.66	331.45
660.00	330.59
660.34	329.70
660.68	328.80
661.02	327.85
661.36	326.94
661.70	326.06
662.05	325.21
662.39	324.36
662.73	323.60
663.07	322.85
663.41	322.05
663.75	321.23
664.09	320.44
664.43	319.60
664.77	318.84
665.11	318.04
665.45	317.30
665.79	316.56
666.13	315.77
666.47	314.98
666.81	314.18
667.15	313.35
667.49	312.64
667.83	312.00
668.17	311.32
668.51	310.70
668.85	310.09
669.19	309.51
669.53	308.84
669.87	308.14
670.21	307.47
670.55	306.84
670.89	306.28
671.23	305.67
671.57	305.08
671.91	304.54
672.25	304.02
672.58	303.49
672.92	302.88
673.26	302.38
673.60	301.86
673.94	301.36
674.28	300.90
674.62	300.39
674.96	299.82
675.30	299.31
675.64	298.76
675.97	298.20
676.31	297.63
676.65	297.10
676.99	296.65
677.33	296.11
677.67	295.61
678.01	295.03
678.34	294.54
678.68	294.08
679.02	293.53
679.36	292.99
679.70	292.46
680.04	292.00
680.37	291.49
680.71	291.03
681.05	290.57
681.39	290.06
681.73	289.53
682.06	289.01
682.40	288.54
682.74	288.13
683.08	287.75
683.42	287.30
683.75	286.90
684.09	286.40
684.43	285.97
684.77	285.53
685.10	285.16
685.44	284.74
685.78	284.33
686.12	283.94
686.45	283.55
686.79	283.13
687.13	282.73
687.46	282.30
687.80	281.89
688.14	281.43
688.48	281.04
688.81	280.66
689.15	280.30
689.49	279.88
689.82	279.45
690.16	278.96
690.50	278.56
690.83	278.14
691.17	277.74
691.51	277.34
691.84	276.95
692.18	276.53
692.52	276.10
692.85	275.68
693.19	275.32
693.52	274.92
693.86	274.51
694.20	274.13
694.53	273.75
694.87	273.34
695.21	272.95
695.54	272.56
695.88	272.17
696.21	271.75
696.55	271.38
696.88	271.00
697.22	270.63
697.56	270.26
697.89	269.83
698.23	269.46
698.56	269.05
698.90	268.69
699.23	268.30
699.57	267.93
699.90	267.55
700.24	267.15
700.58	266.82
700.91	266.51
701.25	266.27
701.58	265.98
701.92	265.68
702.25	265.36
702.59	265.00
702.92	264.66
703.26	264.32
703.59	263.97
703.93	263.73
704.26	263.41
704.60	263.07
704.93	262.74
705.26	262.41
705.60	262.13
705.93	261.77
706.27	261.49
706.60	261.21
706.94	260.94
707.27	260.59
707.61	260.26
707.94	259.92
708.27	259.47
708.61	259.11
708.94	258.77
709.28	258.47
709.61	258.17
709.94	257.89
710.28	257.63
710.61	257.38
710.95	257.00
711.28	256.81
711.61	256.53
711.95	256.29
712.28	256.01
712.61	255.71
712.95	255.53
713.28	255.33
713.61	255.03
713.95	254.72
714.28	254.48
714.61	254.21
714.95	253.96
715.28	253.72
715.61	253.48
715.95	253.25
716.28	253.01
716.61	252.82
716.95	252.56
717.28	252.32
717.61	252.06
717.94	251.82
718.28	251.49
718.61	251.26
718.94	251.01
719.27	250.78
719.61	250.58
719.94	250.32
720.27	250.01
720.60	249.79
720.94	249.58
721.27	249.38
721.60	249.18
721.93	248.95
722.27	248.78
722.60	248.59
722.93	248.37
723.26	248.16
723.59	247.92
723.93	247.72
724.26	247.53
724.59	247.32
724.92	247.15
725.25	247.01
725.59	246.83
725.92	246.67
726.25	246.50
726.58	246.31
726.91	246.12
727.24	245.98
727.57	245.81
727.91	245.61
728.24	245.46
728.57	245.29
728.90	245.14
729.23	244.94
729.56	244.82
729.89	244.65
730.22	244.46
730.55	244.31
730.89	244.15
731.22	243.98
731.55	243.83
731.88	243.67
732.21	243.48
732.54	243.32
732.87	243.17
733.20	243.02
733.53	242.86
733.86	242.73
734.19	242.55
734.52	242.42
734.85	242.36
735.18	242.18
735.51	242.06
735.84	241.92
736.17	241.82
736.50	241.62
736.83	241.63
737.16	241.50
737.49	241.38
737.82	241.24
738.15	241.13
738.48	241.01
738.81	240.87
739.14	240.73
739.47	240.59
739.80	240.45
740.13	240.33
740.46	240.18
740.79	240.02
741.12	239.90
741.45	239.76
741.78	239.57
742.11	239.49
742.44	239.34
742.77	239.24
743.10	239.09
743.43	238.97
743.75	238.72
744.08	238.80
744.41	238.67
744.74	238.55
745.07	238.41
745.40	238.32
745.73	238.27
746.06	238.17
746.39	238.08
746.71	237.97
747.04	237.86
747.37	237.75
747.70	237.68
748.03	237.59
748.36	237.51
748.68	237.41
749.01	237.28
749.34	237.18
749.67	237.08
750.00	236.99
750.33	236.99
750.65	236.91
750.98	236.64
751.31	236.55
751.64	236.48
751.97	236.45
752.29	236.35
752.62	236.20
752.95	236.11
753.28	236.00
753.60	235.92
753.93	235.86
754.26	235.80
754.59	235.67
754.91	235.58
755.24	235.48
755.57	235.45
755.90	235.35
756.22	235.25
756.55	235.15
756.88	235.04
757.20	234.87
757.53	234.75
757.86	234.66
758.19	234.59
758.51	234.51
758.84	234.37
759.17	234.27
759.49	234.21
759.82	234.20
760.15	234.13
760.47	234.05
760.80	233.95
761.13	233.89
761.45	233.82
761.78	233.76
762.11	233.69
762.43	233.57
762.76	233.52
763.08	233.47
763.41	233.43
763.74	233.38
764.06	233.32
764.39	233.26
764.71	233.21
765.04	233.13
765.37	233.06
765.69	233.00
766.02	232.95
766.34	232.88
766.67	232.77
767.00	232.74
767.32	232.75
767.65	232.77
767.97	232.70
768.30	232.66
768.62	232.60
768.95	232.52
769.27	232.47
769.60	232.43
769.92	232.36
770.25	232.28
770.57	232.21
770.90	232.16
771.22	232.10
771.55	232.05
771.87	232.02
772.20	231.97
772.52	232.03
772.85	232.13
773.17	232.09
773.50	232.03
773.82	231.96
774.15	231.85
774.47	231.73
774.80	231.67
775.12	231.62
775.45	231.59
775.77	231.56
776.09	231.53
776.42	231.50
776.74	231.50
777.07	231.47
777.39	231.44
777.72	231.40
778.04	231.38
778.36	231.34
778.69	231.31
779.01	231.29
779.33	231.15
779.66	230.97
779.98	230.93
780.31	230.91
780.63	230.93
780.95	230.93
781.28	230.89
781.60	230.86
781.92	230.83
782.25	230.80
782.57	230.78
782.89	230.74
783.22	230.70
783.54	230.63
783.86	230.61
784.19	230.57
784.51	230.58
784.83	230.53
785.16	230.50
785.48	230.48
785.80	230.45
786.12	230.44
786.45	230.41
786.77	230.40
787.09	230.37
787.42	230.30
787.74	230.28
788.06	230.26
788.38	230.23
788.71	230.21
789.03	230.19
789.35	230.17
789.67	230.14
789.99	230.12
790.32	230.09
790.64	230.07
790.96	230.17
791.28	230.11
791.61	230.08
791.93	230.07
792.25	230.05
792.57	230.11
792.89	230.07
793.21	230.05
793.54	230.02
793.86	229.98
794.18	229.97
794.50	229.92
794.82	229.90
795.14	229.91
795.47	229.91
795.79	229.90
796.11	229.86
796.43	229.83
796.75	229.82
797.07	229.81
797.39	229.79
797.71	229.66
798.04	229.65
798.36	229.64
798.68	229.62
799.00	229.60
799.32	229.53
799.64	229.54
799.96	229.52
800.28	229.53
800.60	229.53
800.92	229.52
801.24	229.50
801.56	229.50
801.89	229.47
802.21	229.45
802.53	229.41
802.85	229.42
803.17	229.47
803.49	229.42
803.81	229.40
804.13	229.38
804.45	229.36
804.77	229.35
805.09	229.34
805.41	229.32
805.73	229.28
806.05	229.23
806.37	229.20
806.69	229.17
807.01	229.14
807.33	229.14
807.65	229.07
807.97	229.12
808.28	229.08
808.60	229.07
808.92	229.03
809.24	229.11
809.56	229.07
809.88	229.01
810.20	229.00
810.52	229.02
810.84	228.99
811.16	228.97
811.48	228.95
811.80	228.99
812.12	228.97
812.43	228.98
812.75	228.99
813.07	228.96
813.39	228.96
813.71	228.94
814.03	228.91
814.35	228.92
814.67	228.86
814.98	228.84
815.30	228.83
815.62	228.80
815.94	228.70
816.26	228.71
816.58	228.69
816.89	228.69
817.21	228.66
817.53	228.66
817.85	228.66
818.17	228.64
818.48	228.59
818.80	228.61
819.12	228.58
819.44	228.55
819.76	228.52
820.07	228.51
820.39	228.50
820.71	228.51
821.03	228.50
821.34	228.48
821.66	228.49
821.98	228.49
822.30	228.49
822.61	228.56
822.93	228.52
823.25	228.51
823.57	228.49
823.88	228.50
824.20	228.49
824.52	228.50
824.83	228.49
825.15	228.46
825.47	228.45
825.79	228.46
826.10	228.44
826.42	228.44
826.74	228.44
827.05	228.44
827.37	228.44
827.69	228.43
828.00	228.43
828.32	228.43
828.64	228.41
828.95	228.47
829.27	228.42
829.58	228.42
829.90	228.44
830.22	228.45
830.53	228.41
830.85	228.40
831.17	228.35
831.48	228.35
831.80	228.35
832.11	228.34
832.43	228.32
832.75	228.32
833.06	228.39
833.38	228.35
833.69	228.33
834.01	228.33
834.32	228.32
834.64	228.29
834.96	228.29
835.27	228.27
835.59	228.23
835.90	228.22
836.22	228.21
836.53	228.18
836.85	228.16
837.16	228.29
837.48	228.28
837.79	228.32
838.11	228.32
838.42	228.32
838.74	228.33
839.05	228.32
839.37	228.31
839.68	228.23
840.00	228.22
840.31	228.25
840.63	228.23
840.94	228.21
841.26	228.20
841.57	228.19
841.88	228.21
842.20	228.18
842.51	228.16
842.83	228.16
843.14	228.27
843.46	228.26
843.77	228.18
844.08	228.18
844.40	228.14
844.71	228.13
845.03	228.11
845.34	228.09
845.65	228.09
845.97	228.09
846.28	228.09
846.60	228.10
846.91	228.07
847.22	228.06
847.54	228.10
847.85	228.10
848.16	228.09
848.48	228.06
848.79	228.11
849.10	228.13
849.42	228.14
849.73	228.01
850.04	228.01
850.36	227.97
850.67	227.99
850.98	227.99
851.30	228.00
851.61	228.00
851.92	228.00
852.23	228.03
852.55	228.04
852.86	228.04
853.17	228.03
853.49	228.06
853.80	228.08
854.11	228.08
854.42	228.09
854.74	228.08
855.05	228.08
855.36	228.01
855.67	228.00
855.99	228.00
856.30	228.15
856.61	228.14
856.92	228.15
857.23	228.15
857.55	228.13
857.86	228.11
858.17	228.13
858.48	228.11
858.79	228.09
859.11	228.09
859.42	228.08
859.73	228.07
860.04	228.06
860.35	228.03
860.66	227.98
860.98	227.97
861.29	227.98
861.60	227.97
861.91	228.00
862.22	227.98
862.53	227.96
862.84	227.80
863.16	227.82
863.47	227.79
863.78	227.77
864.09	227.78
864.40	227.79
864.71	227.78
865.02	227.80
865.33	227.78
865.64	227.76
865.95	227.76
866.27	227.84
866.58	227.83
866.89	227.84
867.20	227.85
867.51	227.83
867.82	227.81
868.13	227.86
868.44	227.83
868.75	227.86
869.06	227.86
869.37	227.88
869.68	227.84
869.99	227.87
870.30	227.87
870.61	227.88
870.92	227.86
871.23	227.85
871.54	227.86
871.85	227.89
872.16	227.90
872.47	227.89
872.78	227.81
873.09	227.82
873.40	227.82
873.71	227.83
874.02	227.85
874.33	227.84
874.64	227.80
874.95	227.83
875.26	227.80
875.56	227.80
875.87	227.79
876.18	227.79
876.49	227.91
876.80	227.90
877.11	227.87
877.42	227.88
877.73	227.88
878.04	227.86
878.35	227.86
878.66	227.86
878.96	227.85
879.27	227.85
879.58	227.84
879.89	227.83
880.20	227.86
880.51	227.85
880.82	227.85
881.12	227.85
881.43	227.83
881.74	227.82
882.05	227.82
882.36	227.82
882.67	227.84
882.97	227.70
883.28	227.69
883.59	227.69
883.90	227.69
884.21	227.70
884.51	227.70
884.82	227.68
885.13	227.67
885.44	227.68
885.74	227.68
886.05	227.68
886.36	227.68
886.67	227.63
886.98	227.70
887.28	227.71
887.59	227.72
887.90	227.72
888.20	227.72
888.51	227.73
888.82	227.71
889.13	227.71
889.43	227.83
889.74	227.82
890.05	227.82
890.35	227.81
890.66	227.79
890.97	227.78
891.28	227.77
891.58	227.77
891.89	227.77
892.20	227.76
892.50	227.75
892.81	227.74
893.12	227.73
893.42	227.67
893.73	227.66
894.04	227.66
894.34	227.66
894.65	227.66
894.95	227.66
895.26	227.66
895.57	227.71
895.87	227.59
896.18	227.61
896.48	227.62
896.79	227.62
897.10	227.64
897.40	227.64
897.71	227.66
898.01	227.65
898.32	227.67
898.63	227.66
898.93	227.66
899.24	227.67
899.54	227.67
899.85	227.67
900.15	227.66
900.46	227.66
900.76	227.66
901.07	227.67
901.38	227.65
901.68	227.66
901.99	227.60
902.29	227.60
902.60	227.58
902.90	227.57
903.21	227.57
903.51	227.56
903.82	227.58
904.12	227.58
904.43	227.59
904.73	227.58
905.03	227.59
905.34	227.71
905.64	227.70
905.95	227.70
906.25	227.70
906.56	227.70
906.86	227.69
907.17	227.69
907.47	227.69
907.77	227.68
908.08	227.67
908.38	227.67
908.69	227.68
908.99	227.70
909.30	227.71
909.60	227.70
909.90	227.70
910.21	227.66
910.51	227.64
910.81	227.64
911.12	227.64
911.42	227.65
911.73	227.51
912.03	227.53
912.33	227.55
912.64	227.53
912.94	227.53
913.24	227.51
913.55	227.50
913.85	227.48
914.15	227.50
914.46	227.51
914.76	227.49
915.06	227.49
915.37	227.47
915.67	227.45
915.97	227.45
916.27	227.43
916.58	227.44
916.88	227.44
917.18	227.42
917.49	227.50
917.79	227.49
918.09	227.50
918.39	227.52
918.70	227.52
919.00	227.53
919.30	227.57
919.60	227.56
919.91	227.55
920.21	227.56
920.51	227.54
920.81	227.53
921.12	227.55
921.42	227.56
921.72	227.56
922.02	227.57
922.32	227.58
922.63	227.59
922.93	227.65
923.23	227.65
923.53	227.65
923.83	227.56
924.13	227.57
924.44	227.57
924.74	227.58
925.04	227.61
925.34	227.60
925.64	227.55
925.94	227.56
926.24	227.64
926.55	227.63
926.85	227.64
927.15	227.64
927.45	227.64
927.75	227.63
928.05	227.63
928.35	227.62
928.65	227.63
928.95	227.64
929.26	227.59
929.56	227.61
929.86	227.62
930.16	227.61
930.46	227.61
930.76	227.61
931.06	227.55
931.36	227.52
931.66	227.54
931.96	227.56
932.26	227.55
932.56	227.50
932.86	227.50
933.16	227.50
933.46	227.50
933.76	227.48
934.06	227.50
934.36	227.54
934.66	227.54
934.96	227.52
935.26	227.52
935.56	227.54
935.86	227.51
936.16	227.49
936.46	227.48
936.76	227.48
937.06	227.46
937.36	227.48
937.66	227.49
937.96	227.48
938.26	227.46
938.56	227.46
938.86	227.47
939.16	227.50
939.46	227.50
939.76	227.51
940.06	227.52
940.35	227.50
940.65	227.44
940.95	227.46
941.25	227.43
941.55	227.42
941.85	227.40
942.15	227.43
942.45	227.47
942.75	227.47
943.04	227.47
943.34	227.49
943.64	227.47
943.94	227.46
944.24	227.46
944.54	227.48
944.84	227.47
945.13	227.45
945.43	227.42
945.73	227.42
946.03	227.40
946.33	227.39
946.62	227.37
946.92	227.37
947.22	227.38
947.52	227.39
947.82	227.40
948.11	227.39
948.41	227.36
948.71	227.33
949.01	227.34
949.31	227.33
949.60	227.32
949.90	227.35
950.20	227.34
950.50	227.33
950.79	227.31
951.09	227.32
951.39	227.32
951.69	227.31
951.98	227.34
952.28	227.35
952.58	227.34
952.87	227.35
953.17	227.37
953.47	227.35
953.76	227.33
954.06	227.31
954.36	227.29
954.66	227.29
954.95	227.33
955.25	227.33
955.55	227.34
955.84	227.32
956.14	227.33
956.44	227.34
956.73	227.33
957.03	227.34
957.32	227.34
957.62	227.35
957.92	227.38
958.21	227.37
958.51	227.50
958.81	227.52
959.10	227.53
959.40	227.55
959.69	227.56
959.99	227.59
960.29	227.59
960.58	227.59
960.88	227.64
961.17	227.62
961.47	227.63
961.76	227.61
962.06	227.64
962.36	227.61
962.65	227.62
962.95	227.63
963.24	227.61
963.54	227.62
963.83	227.62
964.13	227.61
964.42	227.59
964.72	227.48
965.01	227.48
965.31	227.47
965.60	227.43
965.90	227.51
966.19	227.49
966.49	227.49
966.78	227.50
967.08	227.48
967.37	227.48
967.67	227.46
967.96	227.48
968.26	227.48
968.55	227.49
968.85	227.49
969.14	227.49
969.43	227.49
969.73	227.48
970.02	227.47
970.32	227.47
970.61	227.45
970.91	227.42
971.20	227.40
971.49	227.39
971.79	227.41
972.08	227.31
972.38	227.32
972.67	227.31
972.96	227.32
973.26	227.30
973.55	227.34
973.85	227.34
974.14	227.32
974.43	227.32
974.73	227.30
975.02	227.30
975.31	227.30
975.61	227.30
975.90	227.28
976.19	227.27
976.49	227.27
976.78	227.28
977.07	227.28
977.37	227.30
977.66	227.31
977.95	227.29
978.24	227.30
978.54	227.33
978.83	227.33
979.12	227.32
979.42	227.32
979.71	227.30
980.00	227.30
980.29	227.30
980.59	227.28
980.88	227.31
981.17	227.31
981.46	227.31
981.76	227.31
982.05	227.36
982.34	227.37
982.63	227.37
982.93	227.38
983.22	227.40
983.51	227.40
983.80	227.42
984.09	227.44
984.39	227.43
984.68	227.41
984.97	227.41
985.26	227.41
985.55	227.42
985.85	227.39
986.14	227.41
986.43	227.43
986.72	227.42
987.01	227.39
987.30	227.38
987.59	227.38
987.89	227.38
988.18	227.35
988.47	227.34
988.76	227.33
989.05	227.31
989.34	227.30
989.63	227.34
989.92	227.32
990.22	227.30
990.51	227.30
990.80	227.28
991.09	227.30
991.38	227.32
991.67	227.30
991.96	227.29
992.25	227.29
992.54	227.27
992.83	227.27
993.12	227.27
993.41	227.30
993.70	227.35
993.99	227.37
994.28	227.37
994.58	227.40
994.87	227.39
995.16	227.40
995.45	227.38
995.74	227.33
996.03	227.34
996.32	227.37
996.61	227.39
996.90	227.40
997.19	227.39
997.48	227.39
997.77	227.38
998.06	227.38
998.34	227.37
998.63	227.37
998.92	227.37
999.21	227.40
999.50	227.39
999.79	227.35
1000.08	227.34
1000.37	227.34
1000.66	227.31
1000.95	227.34
1001.24	227.35
1001.53	227.37
1001.82	227.37
1002.11	227.34
1002.40	227.35
1002.68	227.37
1002.97	227.46
1003.26	227.45
1003.55	227.43
1003.84	227.45
1004.13	227.50
1004.42	227.50
1004.71	227.49
1004.99	227.49
1005.28	227.50
1005.57	227.50
1005.86	227.49
1006.15	227.48
1006.44	227.46
1006.72	227.48
1007.01	227.47
1007.30	227.46
1007.59	227.44
1007.88	227.44
1008.17	227.45
1008.45	227.42
1008.74	227.37
1009.03	227.31
1009.32	227.31
1009.60	227.31
1009.89	227.29
1010.18	227.22
1010.47	227.21
1010.76	227.21
1011.04	227.21
1011.33	227.20
1011.62	227.20
1011.91	227.22
1012.19	227.21
1012.48	227.21
1012.77	227.21
1013.05	227.25
1013.34	227.24
1013.63	227.23
1013.92	227.25
1014.20	227.24
1014.49	227.24
1014.78	227.25
1015.06	227.21
1015.35	227.21
1015.64	227.22
1015.92	227.25
1016.21	227.26
1016.50	227.27
1016.78	227.28
1017.07	227.29
1017.36	227.27
1017.64	227.26
1017.93	227.27
1018.22	227.26
1018.50	227.26
1018.79	227.24
1019.08	227.20
1019.36	227.22
1019.65	227.21
1019.93	227.24
1020.22	227.26
1020.51	227.32
1020.79	227.31
1021.08	227.06
1021.36	227.01
1021.65	227.08
1021.94	227.23
1022.22	227.43
1022.51	227.00
1022.79	227.92
1023.08	227.47
1023.36	228.65
1023.65	227.05
>>>>>End Processed Spectral Data<<<<<
