SpectraSuite Data File
++++++++++++++++++++++++++++++++++++
Date: Sat Oct 03 14:42:33 EDT 2015
User: lab3
Dark Spectrum Present: No
Reference Spectrum Present: No
Number of Sampled Component Spectra: 1
Spectrometers: USB2E7196
Integration Time (usec): 46000 (USB2E7196)
Spectra Averaged: 24000 (USB2E7196)
Boxcar Smoothing: 10 (USB2E7196)
Correct for Electrical Dark: No (USB2E7196)
Strobe/Lamp Enabled: No (USB2E7196)
Correct for Detector Non-linearity: No (USB2E7196)
Correct for Stray Light: No (USB2E7196)
Number of Pixels in Processed Spectrum: 2048
>>>>>Begin Processed Spectral Data<<<<<
339.09	0.00
339.48	214.80
339.86	216.26
340.24	217.61
340.63	219.06
341.01	222.33
341.39	221.77
341.78	223.16
342.16	224.35
342.54	224.80
342.93	213.20
343.31	223.98
343.69	224.52
344.07	224.98
344.46	225.41
344.84	225.80
345.22	226.03
345.60	226.29
345.99	226.48
346.37	226.62
346.75	226.73
347.13	226.81
347.52	226.89
347.90	226.98
348.28	227.02
348.66	227.08
349.05	227.08
349.43	227.13
349.81	227.19
350.19	227.25
350.57	227.32
350.96	227.40
351.34	227.50
351.72	227.60
352.10	227.71
352.48	227.78
352.87	227.83
353.25	227.89
353.63	227.95
354.01	228.02
354.39	228.09
354.77	228.17
355.15	228.27
355.54	228.32
355.92	228.35
356.30	228.42
356.68	228.57
357.06	228.64
357.44	228.69
357.82	228.75
358.20	228.86
358.58	228.92
358.97	228.98
359.35	229.07
359.73	229.15
360.11	229.20
360.49	229.26
360.87	229.31
361.25	229.37
361.63	229.46
362.01	229.51
362.39	229.53
362.77	229.58
363.15	229.60
363.53	229.64
363.91	229.67
364.29	229.69
364.67	229.60
365.05	229.62
365.43	229.65
365.81	229.68
366.19	229.70
366.57	229.75
366.95	229.76
367.33	229.73
367.71	229.72
368.09	229.74
368.47	229.73
368.85	229.72
369.23	229.73
369.61	229.67
369.99	229.69
370.37	229.69
370.75	229.76
371.13	229.73
371.51	229.69
371.89	229.67
372.27	229.64
372.65	229.62
373.03	229.58
373.41	229.54
373.78	229.49
374.16	229.39
374.54	229.31
374.92	229.25
375.30	229.21
375.68	229.15
376.06	229.10
376.44	229.05
376.82	229.01
377.19	228.96
377.57	228.91
377.95	228.82
378.33	228.76
378.71	228.60
379.09	228.55
379.47	228.52
379.84	228.46
380.22	228.40
380.60	228.32
380.98	228.28
381.36	228.22
381.73	228.16
382.11	228.14
382.49	228.10
382.87	228.04
383.25	228.00
383.62	228.10
384.00	228.03
384.38	227.99
384.76	227.97
385.13	227.97
385.51	227.93
385.89	227.88
386.27	227.85
386.64	227.84
387.02	227.79
387.40	227.75
387.78	227.72
388.15	227.70
388.53	227.67
388.91	227.65
389.29	227.61
389.66	227.61
390.04	227.57
390.42	227.57
390.79	227.56
391.17	227.54
391.55	227.39
391.92	227.38
392.30	227.38
392.68	227.35
393.05	227.32
393.43	227.33
393.81	227.33
394.18	227.32
394.56	227.32
394.94	227.35
395.31	227.35
395.69	227.40
396.06	227.43
396.44	227.45
396.82	227.47
397.19	227.56
397.57	227.57
397.95	227.62
398.32	227.61
398.70	227.65
399.07	227.72
399.45	227.76
399.82	227.81
400.20	227.85
400.58	227.91
400.95	227.93
401.33	228.01
401.70	228.17
402.08	228.28
402.45	228.36
402.83	228.48
403.20	228.60
403.58	228.69
403.95	228.84
404.33	228.99
404.71	229.14
405.08	229.36
405.46	229.53
405.83	229.72
406.21	229.92
406.58	230.15
406.96	230.37
407.33	230.63
407.70	230.93
408.08	231.32
408.45	231.66
408.83	232.03
409.20	232.37
409.58	232.68
409.95	233.10
410.33	233.56
410.70	233.99
411.08	234.49
411.45	235.03
411.82	235.57
412.20	236.19
412.57	236.93
412.95	237.51
413.32	238.28
413.69	239.05
414.07	239.88
414.44	240.77
414.82	241.69
415.19	242.76
415.56	243.85
415.94	244.98
416.31	246.24
416.68	247.51
417.06	248.98
417.43	250.35
417.81	251.94
418.18	253.55
418.55	255.31
418.93	257.15
419.30	259.06
419.67	261.10
420.04	263.18
420.42	265.35
420.79	267.86
421.16	270.40
421.54	272.98
421.91	275.67
422.28	278.47
422.66	281.48
423.03	284.35
423.40	287.37
423.77	290.61
424.15	293.92
424.52	297.37
424.89	301.10
425.26	304.81
425.64	308.25
426.01	312.13
426.38	316.10
426.75	320.18
427.13	324.37
427.50	328.76
427.87	333.32
428.24	337.93
428.61	342.36
428.99	347.14
429.36	352.40
429.73	357.42
430.10	362.45
430.47	367.59
430.85	372.89
431.22	378.56
431.59	384.39
431.96	390.09
432.33	396.42
432.70	402.44
433.08	409.55
433.45	416.29
433.82	422.91
434.19	430.30
434.56	437.60
434.93	444.65
435.30	451.62
435.68	459.50
436.05	467.21
436.42	474.89
436.79	481.90
437.16	489.47
437.53	497.57
437.90	505.68
438.27	513.63
438.64	522.20
439.01	529.96
439.38	537.06
439.75	543.88
440.13	551.58
440.50	558.90
440.87	564.70
441.24	571.05
441.61	577.97
441.98	583.00
442.35	588.98
442.72	595.07
443.09	600.87
443.46	604.51
443.83	607.17
444.20	609.37
444.57	612.68
444.94	614.51
445.31	616.41
445.68	617.99
446.05	619.11
446.42	618.61
446.79	617.92
447.16	617.30
447.53	616.71
447.90	614.12
448.27	611.63
448.64	607.93
449.01	605.32
449.37	600.25
449.74	595.67
450.11	589.75
450.48	583.32
450.85	576.89
451.22	571.40
451.59	566.03
451.96	561.18
452.33	554.15
452.70	547.93
453.07	540.34
453.43	532.79
453.80	525.47
454.17	518.46
454.54	512.01
454.91	504.73
455.28	497.91
455.65	491.50
456.02	484.72
456.38	479.28
456.75	472.27
457.12	466.63
457.49	460.94
457.86	455.60
458.23	450.93
458.59	445.74
458.96	440.41
459.33	435.73
459.70	430.97
460.07	427.36
460.43	423.11
460.80	419.14
461.17	415.70
461.54	411.94
461.91	408.45
462.27	404.89
462.64	402.04
463.01	398.72
463.38	395.39
463.74	392.40
464.11	389.75
464.48	387.38
464.85	384.78
465.21	382.83
465.58	380.64
465.95	378.11
466.32	376.12
466.68	374.15
467.05	372.18
467.42	370.25
467.78	368.15
468.15	366.23
468.52	364.84
468.88	362.95
469.25	361.22
469.62	359.85
469.98	358.34
470.35	357.01
470.72	355.81
471.08	354.57
471.45	353.53
471.82	352.38
472.18	351.14
472.55	350.34
472.92	349.33
473.28	348.54
473.65	347.69
474.02	346.87
474.38	346.19
474.75	345.78
475.11	345.21
475.48	344.94
475.85	344.64
476.21	344.48
476.58	344.35
476.94	344.46
477.31	344.52
477.67	344.59
478.04	344.77
478.41	345.05
478.77	345.45
479.14	345.71
479.50	346.21
479.87	346.87
480.23	347.54
480.60	348.20
480.96	348.86
481.33	349.86
481.69	350.84
482.06	351.82
482.42	352.72
482.79	353.85
483.15	355.15
483.52	356.63
483.88	358.06
484.25	359.59
484.61	361.18
484.98	362.90
485.34	364.84
485.71	366.88
486.07	369.05
486.44	371.22
486.80	373.64
487.17	376.16
487.53	378.90
487.90	381.78
488.26	384.91
488.62	388.22
488.99	391.52
489.35	395.01
489.72	398.79
490.08	402.77
490.44	406.88
490.81	411.15
491.17	415.52
491.54	420.22
491.90	425.07
492.26	430.25
492.63	435.67
492.99	441.33
493.36	447.20
493.72	453.36
494.08	459.68
494.45	466.39
494.81	473.36
495.17	480.53
495.54	488.10
495.90	495.96
496.26	504.01
496.63	512.32
496.99	520.95
497.35	529.97
497.72	539.27
498.08	548.78
498.44	558.62
498.80	569.06
499.17	579.75
499.53	590.75
499.89	602.16
500.26	613.78
500.62	625.71
500.98	638.27
501.34	651.02
501.71	664.29
502.07	677.77
502.43	691.79
502.79	706.01
503.16	720.70
503.52	735.56
503.88	750.87
504.24	766.65
504.60	782.64
504.97	799.12
505.33	816.06
505.69	833.91
506.05	852.08
506.41	870.16
506.78	888.46
507.14	907.29
507.50	926.52
507.86	946.14
508.22	965.94
508.59	985.57
508.95	1006.04
509.31	1027.29
509.67	1049.20
510.03	1071.09
510.39	1093.07
510.75	1115.23
511.12	1137.68
511.48	1160.27
511.84	1182.88
512.20	1205.96
512.56	1229.89
512.92	1253.82
513.28	1277.32
513.64	1301.14
514.00	1325.42
514.37	1349.98
514.73	1374.54
515.09	1398.98
515.45	1423.75
515.81	1448.65
516.17	1473.68
516.53	1498.18
516.89	1522.56
517.25	1547.14
517.61	1571.57
517.97	1596.46
518.33	1620.90
518.69	1645.25
519.05	1670.13
519.41	1695.32
519.77	1720.59
520.13	1745.16
520.49	1769.65
520.85	1794.53
521.21	1818.87
521.57	1843.63
521.93	1867.84
522.29	1892.54
522.65	1916.73
523.01	1940.90
523.37	1964.71
523.73	1989.26
524.09	2013.45
524.45	2037.37
524.81	2060.98
525.17	2084.48
525.53	2107.37
525.89	2130.66
526.25	2154.00
526.61	2176.31
526.97	2198.71
527.33	2221.12
527.68	2243.19
528.04	2264.42
528.40	2284.66
528.76	2305.30
529.12	2325.34
529.48	2345.07
529.84	2362.96
530.20	2381.56
530.56	2399.48
530.91	2417.58
531.27	2435.30
531.63	2452.15
531.99	2468.66
532.35	2484.36
532.71	2500.18
533.07	2516.67
533.42	2531.38
533.78	2547.07
534.14	2562.92
534.50	2577.74
534.86	2592.30
535.21	2604.92
535.57	2618.17
535.93	2631.23
536.29	2642.99
536.65	2654.60
537.00	2665.48
537.36	2677.37
537.72	2687.80
538.08	2697.75
538.44	2707.03
538.79	2715.84
539.15	2723.92
539.51	2731.52
539.87	2738.50
540.22	2743.52
540.58	2748.66
540.94	2755.03
541.29	2759.64
541.65	2762.50
542.01	2764.75
542.37	2766.44
542.72	2769.41
543.08	2770.60
543.44	2772.42
543.79	2773.21
544.15	2773.18
544.51	2773.55
544.87	2772.80
545.22	2771.20
545.58	2768.92
545.94	2766.68
546.29	2763.14
546.65	2759.63
547.01	2756.17
547.36	2753.46
547.72	2750.76
548.07	2746.32
548.43	2740.33
548.79	2733.44
549.14	2727.92
549.50	2722.57
549.86	2716.14
550.21	2708.63
550.57	2702.17
550.92	2693.33
551.28	2685.18
551.64	2677.39
551.99	2669.10
552.35	2660.06
552.70	2651.44
553.06	2643.11
553.41	2634.04
553.77	2624.90
554.13	2615.65
554.48	2605.44
554.84	2594.09
555.19	2583.25
555.55	2572.43
555.90	2561.74
556.26	2551.66
556.61	2540.35
556.97	2527.40
557.32	2515.01
557.68	2502.58
558.03	2489.94
558.39	2478.53
558.74	2467.33
559.10	2454.37
559.45	2441.75
559.81	2429.82
560.16	2417.10
560.52	2404.71
560.87	2392.76
561.23	2379.87
561.58	2367.08
561.94	2353.99
562.29	2340.24
562.64	2327.30
563.00	2314.05
563.35	2301.22
563.71	2288.18
564.06	2275.01
564.42	2262.72
564.77	2249.83
565.12	2236.80
565.48	2223.69
565.83	2210.60
566.19	2197.55
566.54	2184.48
566.89	2170.30
567.25	2156.27
567.60	2143.66
567.96	2130.11
568.31	2115.20
568.66	2101.13
569.02	2088.17
569.37	2075.13
569.72	2062.66
570.08	2048.89
570.43	2034.77
570.78	2020.46
571.14	2005.44
571.49	1991.18
571.84	1977.43
572.20	1962.42
572.55	1947.79
572.90	1932.93
573.26	1918.14
573.61	1902.85
573.96	1887.99
574.31	1873.39
574.67	1858.83
575.02	1843.21
575.37	1827.78
575.72	1813.15
576.08	1798.74
576.43	1783.24
576.78	1768.22
577.13	1753.44
577.49	1738.97
577.84	1725.11
578.19	1710.30
578.54	1695.72
578.90	1680.62
579.25	1665.43
579.60	1651.89
579.95	1638.10
580.30	1624.18
580.66	1609.96
581.01	1595.76
581.36	1581.62
581.71	1568.43
582.06	1555.09
582.42	1542.00
582.77	1528.89
583.12	1515.80
583.47	1502.65
583.82	1489.57
584.17	1476.11
584.53	1462.33
584.88	1448.97
585.23	1435.15
585.58	1422.18
585.93	1409.40
586.28	1397.35
586.63	1385.26
586.98	1372.64
587.34	1360.15
587.69	1347.46
588.04	1335.07
588.39	1323.03
588.74	1311.06
589.09	1298.87
589.44	1286.30
589.79	1274.39
590.14	1262.54
590.49	1250.61
590.84	1238.80
591.19	1227.46
591.54	1215.92
591.89	1204.54
592.25	1193.34
592.60	1181.82
592.95	1170.67
593.30	1159.76
593.65	1148.55
594.00	1137.46
594.35	1126.98
594.70	1116.09
595.05	1106.01
595.40	1095.81
595.75	1085.43
596.10	1075.64
596.45	1065.57
596.80	1055.82
597.15	1045.86
597.50	1036.05
597.85	1026.61
598.19	1017.01
598.54	1007.46
598.89	998.36
599.24	989.59
599.59	980.62
599.94	972.54
600.29	964.23
600.64	955.62
600.99	946.67
601.34	938.08
601.69	929.17
602.04	920.90
602.39	912.48
602.74	904.12
603.08	895.74
603.43	887.32
603.78	879.10
604.13	871.00
604.48	862.87
604.83	854.94
605.18	846.98
605.53	839.16
605.87	831.13
606.22	823.43
606.57	815.67
606.92	807.82
607.27	799.88
607.62	792.30
607.96	785.14
608.31	778.40
608.66	771.46
609.01	764.79
609.36	758.25
609.70	751.45
610.05	744.67
610.40	738.14
610.75	731.58
611.10	725.35
611.44	719.01
611.79	712.76
612.14	706.43
612.49	700.18
612.83	694.23
613.18	688.43
613.53	682.52
613.88	676.62
614.22	671.13
614.57	665.59
614.92	659.87
615.27	654.27
615.61	648.75
615.96	643.26
616.31	637.76
616.65	632.32
617.00	627.12
617.35	622.02
617.70	616.95
618.04	611.93
618.39	606.83
618.74	601.98
619.08	597.18
619.43	592.48
619.78	587.80
620.12	583.09
620.47	578.54
620.82	574.10
621.16	569.67
621.51	565.13
621.85	560.65
622.20	556.36
622.55	552.09
622.89	547.89
623.24	543.70
623.59	539.55
623.93	535.57
624.28	531.69
624.62	527.89
624.97	524.12
625.32	520.33
625.66	516.50
626.01	512.63
626.35	508.83
626.70	505.09
627.04	501.52
627.39	497.88
627.73	494.41
628.08	491.03
628.43	487.65
628.77	484.36
629.12	481.17
629.46	477.99
629.81	474.72
630.15	471.46
630.50	468.29
630.84	465.18
631.19	462.12
631.53	459.16
631.88	456.17
632.22	453.21
632.57	450.52
632.91	447.86
633.26	445.29
633.60	442.74
633.95	440.23
634.29	437.65
634.64	435.14
634.98	432.43
635.32	429.87
635.67	427.50
636.01	425.06
636.36	422.68
636.70	420.43
637.05	418.18
637.39	415.95
637.73	413.75
638.08	411.67
638.42	409.55
638.77	407.31
639.11	405.02
639.45	402.82
639.80	400.56
640.14	398.41
640.49	396.24
640.83	394.05
641.17	391.97
641.52	389.92
641.86	387.90
642.20	386.08
642.55	384.11
642.89	382.18
643.23	380.33
643.58	378.64
643.92	376.82
644.26	375.05
644.61	373.35
644.95	371.62
645.29	369.81
645.64	368.03
645.98	366.34
646.32	364.76
646.66	363.17
647.01	361.61
647.35	360.09
647.69	358.55
648.04	357.15
648.38	355.65
648.72	354.18
649.06	352.73
649.41	351.27
649.75	349.87
650.09	348.49
650.43	347.12
650.78	345.69
651.12	344.31
651.46	342.99
651.80	341.68
652.14	340.41
652.49	339.18
652.83	337.92
653.17	336.72
653.51	335.54
653.85	334.41
654.20	333.25
654.54	332.01
654.88	330.87
655.22	329.75
655.56	328.62
655.90	327.56
656.25	326.52
656.59	325.46
656.93	324.47
657.27	323.50
657.61	322.46
657.95	321.48
658.29	320.49
658.64	319.56
658.98	318.62
659.32	317.70
659.66	316.83
660.00	315.99
660.34	315.14
660.68	314.26
661.02	313.36
661.36	312.49
661.70	311.67
662.05	310.87
662.39	310.07
662.73	309.35
663.07	308.63
663.41	307.87
663.75	307.12
664.09	306.37
664.43	305.58
664.77	304.87
665.11	304.13
665.45	303.44
665.79	302.76
666.13	302.04
666.47	301.32
666.81	300.59
667.15	299.82
667.49	299.16
667.83	298.57
668.17	297.95
668.51	297.37
668.85	296.81
669.19	296.27
669.53	295.64
669.87	295.02
670.21	294.41
670.55	293.84
670.89	293.35
671.23	292.81
671.57	292.29
671.91	291.81
672.25	291.34
672.58	290.88
672.92	290.34
673.26	289.89
673.60	289.45
673.94	289.01
674.28	288.61
674.62	288.17
674.96	287.68
675.30	287.25
675.64	286.78
675.97	286.31
676.31	285.81
676.65	285.37
676.99	284.99
677.33	284.52
677.67	284.10
678.01	283.60
678.34	283.19
678.68	282.80
679.02	282.34
679.36	281.91
679.70	281.47
680.04	281.07
680.37	280.66
680.71	280.27
681.05	279.89
681.39	279.48
681.73	279.04
682.06	278.63
682.40	278.24
682.74	277.90
683.08	277.60
683.42	277.24
683.75	276.91
684.09	276.51
684.43	276.17
684.77	275.82
685.10	275.52
685.44	275.18
685.78	274.84
686.12	274.52
686.45	274.18
686.79	273.84
687.13	273.52
687.46	273.17
687.80	272.85
688.14	272.47
688.48	272.16
688.81	271.84
689.15	271.56
689.49	271.22
689.82	270.87
690.16	270.47
690.50	270.15
690.83	269.82
691.17	269.48
691.51	269.16
691.84	268.85
692.18	268.51
692.52	268.16
692.85	267.83
693.19	267.55
693.52	267.23
693.86	266.91
694.20	266.60
694.53	266.31
694.87	265.98
695.21	265.67
695.54	265.36
695.88	265.04
696.21	264.70
696.55	264.41
696.88	264.11
697.22	263.81
697.56	263.51
697.89	263.18
698.23	262.89
698.56	262.57
698.90	262.28
699.23	261.96
699.57	261.66
699.90	261.36
700.24	261.03
700.58	260.76
700.91	260.52
701.25	260.35
701.58	260.12
701.92	259.88
702.25	259.62
702.59	259.34
702.92	259.07
703.26	258.80
703.59	258.51
703.93	258.33
704.26	258.07
704.60	257.80
704.93	257.53
705.26	257.25
705.60	257.02
705.93	256.73
706.27	256.51
706.60	256.30
706.94	256.09
707.27	255.81
707.61	255.54
707.94	255.25
708.27	254.87
708.61	254.56
708.94	254.28
709.28	254.02
709.61	253.77
709.94	253.54
710.28	253.32
710.61	253.11
710.95	252.78
711.28	252.62
711.61	252.39
711.95	252.20
712.28	251.96
712.61	251.71
712.95	251.56
713.28	251.40
713.61	251.14
713.95	250.88
714.28	250.67
714.61	250.45
714.95	250.23
715.28	250.02
715.61	249.82
715.95	249.63
716.28	249.43
716.61	249.27
716.95	249.05
717.28	248.84
717.61	248.63
717.94	248.44
718.28	248.15
718.61	247.94
718.94	247.72
719.27	247.54
719.61	247.37
719.94	247.14
720.27	246.87
720.60	246.69
720.94	246.50
721.27	246.33
721.60	246.17
721.93	245.98
722.27	245.83
722.60	245.67
722.93	245.48
723.26	245.30
723.59	245.08
723.93	244.92
724.26	244.76
724.59	244.58
724.92	244.42
725.25	244.30
725.59	244.14
725.92	244.01
726.25	243.85
726.58	243.69
726.91	243.52
727.24	243.38
727.57	243.23
727.91	243.06
728.24	242.93
728.57	242.76
728.90	242.63
729.23	242.44
729.56	242.34
729.89	242.19
730.22	242.04
730.55	241.89
730.89	241.75
731.22	241.60
731.55	241.46
731.88	241.31
732.21	241.14
732.54	241.00
732.87	240.86
733.20	240.73
733.53	240.60
733.86	240.48
734.19	240.33
734.52	240.22
734.85	240.18
735.18	240.02
735.51	239.93
735.84	239.80
736.17	239.72
736.50	239.53
736.83	239.56
737.16	239.44
737.49	239.33
737.82	239.21
738.15	239.12
738.48	239.00
738.81	238.88
739.14	238.76
739.47	238.64
739.80	238.51
740.13	238.41
740.46	238.27
740.79	238.14
741.12	238.03
741.45	237.90
741.78	237.72
742.11	237.64
742.44	237.50
742.77	237.41
743.10	237.28
743.43	237.17
743.75	236.93
744.08	237.02
744.41	236.91
744.74	236.81
745.07	236.68
745.40	236.60
745.73	236.55
746.06	236.47
746.39	236.39
746.71	236.29
747.04	236.18
747.37	236.09
747.70	236.03
748.03	235.95
748.36	235.88
748.68	235.79
749.01	235.67
749.34	235.58
749.67	235.50
750.00	235.43
750.33	235.44
750.65	235.37
750.98	235.09
751.31	235.02
751.64	234.94
751.97	234.93
752.29	234.84
752.62	234.70
752.95	234.61
753.28	234.51
753.60	234.43
753.93	234.38
754.26	234.31
754.59	234.19
754.91	234.09
755.24	234.00
755.57	233.98
755.90	233.90
756.22	233.81
756.55	233.71
756.88	233.61
757.20	233.45
757.53	233.34
757.86	233.27
758.19	233.20
758.51	233.12
758.84	232.99
759.17	232.91
759.49	232.85
759.82	232.84
760.15	232.79
760.47	232.72
760.80	232.62
761.13	232.58
761.45	232.52
761.78	232.47
762.11	232.41
762.43	232.28
762.76	232.23
763.08	232.18
763.41	232.14
763.74	232.09
764.06	232.03
764.39	231.98
764.71	231.93
765.04	231.86
765.37	231.80
765.69	231.75
766.02	231.70
766.34	231.64
766.67	231.54
767.00	231.51
767.32	231.53
767.65	231.56
767.97	231.50
768.30	231.46
768.62	231.41
768.95	231.34
769.27	231.30
769.60	231.26
769.92	231.20
770.25	231.13
770.57	231.07
770.90	231.02
771.22	230.96
771.55	230.92
771.87	230.89
772.20	230.84
772.52	230.91
772.85	231.02
773.17	230.99
773.50	230.94
773.82	230.88
774.15	230.77
774.47	230.65
774.80	230.60
775.12	230.56
775.45	230.52
775.77	230.50
776.09	230.48
776.42	230.44
776.74	230.45
777.07	230.42
777.39	230.39
777.72	230.35
778.04	230.33
778.36	230.29
778.69	230.26
779.01	230.24
779.33	230.10
779.66	229.93
779.98	229.89
780.31	229.87
780.63	229.89
780.95	229.89
781.28	229.86
781.60	229.83
781.92	229.81
782.25	229.78
782.57	229.75
782.89	229.72
783.22	229.68
783.54	229.63
783.86	229.62
784.19	229.58
784.51	229.60
784.83	229.56
785.16	229.53
785.48	229.51
785.80	229.49
786.12	229.47
786.45	229.45
786.77	229.44
787.09	229.41
787.42	229.34
787.74	229.32
788.06	229.30
788.38	229.28
788.71	229.25
789.03	229.23
789.35	229.23
789.67	229.20
789.99	229.19
790.32	229.16
790.64	229.14
790.96	229.24
791.28	229.18
791.61	229.16
791.93	229.15
792.25	229.12
792.57	229.19
792.89	229.15
793.21	229.14
793.54	229.11
793.86	229.08
794.18	229.07
794.50	229.03
794.82	229.01
795.14	229.01
795.47	229.02
795.79	229.00
796.11	228.95
796.43	228.93
796.75	228.91
797.07	228.91
797.39	228.88
797.71	228.76
798.04	228.75
798.36	228.75
798.68	228.73
799.00	228.72
799.32	228.65
799.64	228.65
799.96	228.63
800.28	228.64
800.60	228.62
800.92	228.62
801.24	228.60
801.56	228.59
801.89	228.57
802.21	228.56
802.53	228.52
802.85	228.54
803.17	228.58
803.49	228.54
803.81	228.52
804.13	228.50
804.45	228.47
804.77	228.46
805.09	228.45
805.41	228.43
805.73	228.39
806.05	228.34
806.37	228.32
806.69	228.30
807.01	228.27
807.33	228.27
807.65	228.21
807.97	228.26
808.28	228.23
808.60	228.22
808.92	228.19
809.24	228.26
809.56	228.22
809.88	228.17
810.20	228.17
810.52	228.18
810.84	228.15
811.16	228.13
811.48	228.11
811.80	228.14
812.12	228.13
812.43	228.15
812.75	228.15
813.07	228.13
813.39	228.13
813.71	228.10
814.03	228.08
814.35	228.08
814.67	228.02
814.98	228.00
815.30	227.99
815.62	227.96
815.94	227.87
816.26	227.87
816.58	227.84
816.89	227.84
817.21	227.81
817.53	227.81
817.85	227.81
818.17	227.80
818.48	227.74
818.80	227.75
819.12	227.72
819.44	227.69
819.76	227.67
820.07	227.66
820.39	227.65
820.71	227.65
821.03	227.65
821.34	227.63
821.66	227.64
821.98	227.65
822.30	227.64
822.61	227.71
822.93	227.68
823.25	227.67
823.57	227.65
823.88	227.66
824.20	227.65
824.52	227.67
824.83	227.65
825.15	227.64
825.47	227.62
825.79	227.63
826.10	227.62
826.42	227.61
826.74	227.61
827.05	227.61
827.37	227.60
827.69	227.59
828.00	227.59
828.32	227.58
828.64	227.56
828.95	227.62
829.27	227.58
829.58	227.58
829.90	227.59
830.22	227.60
830.53	227.57
830.85	227.55
831.17	227.51
831.48	227.51
831.80	227.51
832.11	227.50
832.43	227.48
832.75	227.48
833.06	227.54
833.38	227.51
833.69	227.50
834.01	227.49
834.32	227.49
834.64	227.47
834.96	227.46
835.27	227.46
835.59	227.41
835.90	227.39
836.22	227.38
836.53	227.35
836.85	227.33
837.16	227.45
837.48	227.45
837.79	227.49
838.11	227.49
838.42	227.48
838.74	227.49
839.05	227.48
839.37	227.47
839.68	227.39
840.00	227.39
840.31	227.40
840.63	227.39
840.94	227.37
841.26	227.36
841.57	227.35
841.88	227.36
842.20	227.34
842.51	227.32
842.83	227.31
843.14	227.43
843.46	227.42
843.77	227.34
844.08	227.34
844.40	227.29
844.71	227.28
845.03	227.26
845.34	227.25
845.65	227.24
845.97	227.24
846.28	227.25
846.60	227.25
846.91	227.23
847.22	227.22
847.54	227.25
847.85	227.26
848.16	227.24
848.48	227.21
848.79	227.26
849.10	227.28
849.42	227.28
849.73	227.16
850.04	227.16
850.36	227.11
850.67	227.12
850.98	227.13
851.30	227.14
851.61	227.13
851.92	227.13
852.23	227.17
852.55	227.17
852.86	227.17
853.17	227.18
853.49	227.21
853.80	227.23
854.11	227.23
854.42	227.25
854.74	227.23
855.05	227.24
855.36	227.17
855.67	227.17
855.99	227.17
856.30	227.32
856.61	227.31
856.92	227.31
857.23	227.32
857.55	227.30
857.86	227.29
858.17	227.31
858.48	227.29
858.79	227.25
859.11	227.26
859.42	227.25
859.73	227.23
860.04	227.22
860.35	227.18
860.66	227.14
860.98	227.13
861.29	227.15
861.60	227.14
861.91	227.17
862.22	227.14
862.53	227.12
862.84	226.98
863.16	227.00
863.47	226.98
863.78	226.95
864.09	226.97
864.40	226.97
864.71	226.97
865.02	226.99
865.33	226.97
865.64	226.95
865.95	226.95
866.27	227.03
866.58	227.01
866.89	227.03
867.20	227.03
867.51	227.01
867.82	227.01
868.13	227.04
868.44	227.01
868.75	227.04
869.06	227.04
869.37	227.05
869.68	227.02
869.99	227.05
870.30	227.05
870.61	227.06
870.92	227.04
871.23	227.03
871.54	227.04
871.85	227.07
872.16	227.09
872.47	227.07
872.78	227.00
873.09	227.01
873.40	227.00
873.71	227.01
874.02	227.01
874.33	227.00
874.64	226.97
874.95	226.99
875.26	226.96
875.56	226.96
875.87	226.95
876.18	226.95
876.49	227.07
876.80	227.06
877.11	227.03
877.42	227.04
877.73	227.04
878.04	227.02
878.35	227.01
878.66	227.02
878.96	227.01
879.27	227.01
879.58	227.00
879.89	226.99
880.20	227.03
880.51	227.02
880.82	227.02
881.12	227.03
881.43	227.00
881.74	226.99
882.05	226.98
882.36	226.99
882.67	227.00
882.97	226.86
883.28	226.85
883.59	226.85
883.90	226.86
884.21	226.87
884.51	226.86
884.82	226.84
885.13	226.84
885.44	226.84
885.74	226.84
886.05	226.83
886.36	226.83
886.67	226.79
886.98	226.85
887.28	226.86
887.59	226.86
887.90	226.87
888.20	226.86
888.51	226.89
888.82	226.87
889.13	226.87
889.43	226.98
889.74	226.98
890.05	226.98
890.35	226.96
890.66	226.94
890.97	226.93
891.28	226.92
891.58	226.92
891.89	226.92
892.20	226.90
892.50	226.89
892.81	226.88
893.12	226.88
893.42	226.82
893.73	226.82
894.04	226.81
894.34	226.82
894.65	226.82
894.95	226.81
895.26	226.82
895.57	226.87
895.87	226.74
896.18	226.76
896.48	226.77
896.79	226.77
897.10	226.78
897.40	226.79
897.71	226.81
898.01	226.79
898.32	226.81
898.63	226.81
898.93	226.82
899.24	226.82
899.54	226.81
899.85	226.80
900.15	226.79
900.46	226.79
900.76	226.80
901.07	226.80
901.38	226.79
901.68	226.80
901.99	226.74
902.29	226.75
902.60	226.74
902.90	226.73
903.21	226.73
903.51	226.71
903.82	226.74
904.12	226.74
904.43	226.75
904.73	226.73
905.03	226.74
905.34	226.86
905.64	226.86
905.95	226.86
906.25	226.86
906.56	226.86
906.86	226.86
907.17	226.85
907.47	226.85
907.77	226.84
908.08	226.81
908.38	226.82
908.69	226.83
908.99	226.85
909.30	226.86
909.60	226.85
909.90	226.86
910.21	226.82
910.51	226.80
910.81	226.80
911.12	226.81
911.42	226.81
911.73	226.68
912.03	226.69
912.33	226.71
912.64	226.70
912.94	226.69
913.24	226.67
913.55	226.66
913.85	226.65
914.15	226.68
914.46	226.69
914.76	226.68
915.06	226.67
915.37	226.65
915.67	226.64
915.97	226.64
916.27	226.61
916.58	226.62
916.88	226.62
917.18	226.61
917.49	226.69
917.79	226.69
918.09	226.70
918.39	226.73
918.70	226.72
919.00	226.73
919.30	226.79
919.60	226.79
919.91	226.78
920.21	226.78
920.51	226.75
920.81	226.74
921.12	226.76
921.42	226.76
921.72	226.77
922.02	226.78
922.32	226.80
922.63	226.80
922.93	226.87
923.23	226.88
923.53	226.87
923.83	226.78
924.13	226.79
924.44	226.79
924.74	226.80
925.04	226.83
925.34	226.82
925.64	226.77
925.94	226.77
926.24	226.84
926.55	226.83
926.85	226.85
927.15	226.85
927.45	226.84
927.75	226.84
928.05	226.84
928.35	226.83
928.65	226.85
928.95	226.85
929.26	226.79
929.56	226.81
929.86	226.83
930.16	226.82
930.46	226.81
930.76	226.81
931.06	226.75
931.36	226.72
931.66	226.74
931.96	226.75
932.26	226.76
932.56	226.70
932.86	226.71
933.16	226.71
933.46	226.70
933.76	226.68
934.06	226.70
934.36	226.74
934.66	226.74
934.96	226.72
935.26	226.72
935.56	226.74
935.86	226.71
936.16	226.69
936.46	226.68
936.76	226.68
937.06	226.66
937.36	226.67
937.66	226.68
937.96	226.67
938.26	226.65
938.56	226.64
938.86	226.65
939.16	226.67
939.46	226.68
939.76	226.69
940.06	226.69
940.35	226.67
940.65	226.61
940.95	226.62
941.25	226.59
941.55	226.58
941.85	226.56
942.15	226.59
942.45	226.63
942.75	226.63
943.04	226.63
943.34	226.65
943.64	226.64
943.94	226.62
944.24	226.62
944.54	226.63
944.84	226.62
945.13	226.61
945.43	226.58
945.73	226.57
946.03	226.55
946.33	226.54
946.62	226.53
946.92	226.53
947.22	226.53
947.52	226.55
947.82	226.56
948.11	226.55
948.41	226.52
948.71	226.48
949.01	226.49
949.31	226.48
949.60	226.47
949.90	226.49
950.20	226.49
950.50	226.48
950.79	226.47
951.09	226.49
951.39	226.49
951.69	226.48
951.98	226.50
952.28	226.51
952.58	226.52
952.87	226.52
953.17	226.54
953.47	226.52
953.76	226.52
954.06	226.49
954.36	226.48
954.66	226.48
954.95	226.51
955.25	226.52
955.55	226.54
955.84	226.52
956.14	226.52
956.44	226.54
956.73	226.52
957.03	226.53
957.32	226.53
957.62	226.52
957.92	226.55
958.21	226.53
958.51	226.67
958.81	226.69
959.10	226.70
959.40	226.73
959.69	226.73
959.99	226.75
960.29	226.76
960.58	226.75
960.88	226.80
961.17	226.78
961.47	226.79
961.76	226.78
962.06	226.80
962.36	226.79
962.65	226.79
962.95	226.80
963.24	226.79
963.54	226.79
963.83	226.80
964.13	226.79
964.42	226.78
964.72	226.67
965.01	226.67
965.31	226.66
965.60	226.63
965.90	226.71
966.19	226.68
966.49	226.68
966.78	226.68
967.08	226.67
967.37	226.67
967.67	226.65
967.96	226.67
968.26	226.67
968.55	226.68
968.85	226.68
969.14	226.67
969.43	226.67
969.73	226.66
970.02	226.65
970.32	226.65
970.61	226.63
970.91	226.60
971.20	226.58
971.49	226.57
971.79	226.58
972.08	226.49
972.38	226.50
972.67	226.50
972.96	226.52
973.26	226.49
973.55	226.53
973.85	226.52
974.14	226.51
974.43	226.52
974.73	226.50
975.02	226.48
975.31	226.48
975.61	226.48
975.90	226.47
976.19	226.46
976.49	226.47
976.78	226.48
977.07	226.48
977.37	226.49
977.66	226.51
977.95	226.48
978.24	226.50
978.54	226.52
978.83	226.51
979.12	226.50
979.42	226.50
979.71	226.48
980.00	226.48
980.29	226.48
980.59	226.46
980.88	226.49
981.17	226.49
981.46	226.49
981.76	226.49
982.05	226.53
982.34	226.54
982.63	226.54
982.93	226.53
983.22	226.56
983.51	226.56
983.80	226.58
984.09	226.60
984.39	226.59
984.68	226.57
984.97	226.58
985.26	226.57
985.55	226.58
985.85	226.56
986.14	226.57
986.43	226.59
986.72	226.58
987.01	226.54
987.30	226.54
987.59	226.53
987.89	226.54
988.18	226.50
988.47	226.49
988.76	226.48
989.05	226.46
989.34	226.45
989.63	226.48
989.92	226.46
990.22	226.44
990.51	226.43
990.80	226.42
991.09	226.43
991.38	226.45
991.67	226.44
991.96	226.43
992.25	226.43
992.54	226.41
992.83	226.41
993.12	226.41
993.41	226.43
993.70	226.48
993.99	226.50
994.28	226.52
994.58	226.54
994.87	226.53
995.16	226.53
995.45	226.52
995.74	226.48
996.03	226.50
996.32	226.52
996.61	226.55
996.90	226.55
997.19	226.54
997.48	226.53
997.77	226.52
998.06	226.53
998.34	226.52
998.63	226.52
998.92	226.52
999.21	226.54
999.50	226.54
999.79	226.49
1000.08	226.49
1000.37	226.49
1000.66	226.47
1000.95	226.51
1001.24	226.51
1001.53	226.53
1001.82	226.53
1002.11	226.50
1002.40	226.51
1002.68	226.54
1002.97	226.62
1003.26	226.61
1003.55	226.59
1003.84	226.60
1004.13	226.65
1004.42	226.64
1004.71	226.64
1004.99	226.63
1005.28	226.66
1005.57	226.65
1005.86	226.64
1006.15	226.63
1006.44	226.61
1006.72	226.62
1007.01	226.60
1007.30	226.60
1007.59	226.58
1007.88	226.58
1008.17	226.59
1008.45	226.56
1008.74	226.51
1009.03	226.45
1009.32	226.46
1009.60	226.46
1009.89	226.45
1010.18	226.40
1010.47	226.39
1010.76	226.39
1011.04	226.39
1011.33	226.39
1011.62	226.39
1011.91	226.40
1012.19	226.41
1012.48	226.42
1012.77	226.41
1013.05	226.46
1013.34	226.45
1013.63	226.45
1013.92	226.46
1014.20	226.45
1014.49	226.45
1014.78	226.47
1015.06	226.42
1015.35	226.43
1015.64	226.44
1015.92	226.46
1016.21	226.47
1016.50	226.47
1016.78	226.49
1017.07	226.50
1017.36	226.48
1017.64	226.46
1017.93	226.47
1018.22	226.45
1018.50	226.45
1018.79	226.45
1019.08	226.40
1019.36	226.41
1019.65	226.40
1019.93	226.43
1020.22	226.45
1020.51	226.51
1020.79	226.50
1021.08	226.29
1021.36	226.27
1021.65	226.45
1021.94	226.38
1022.22	226.52
1022.51	226.16
1022.79	227.04
1023.08	226.62
1023.36	227.91
1023.65	226.14
>>>>>End Processed Spectral Data<<<<<
