SpectraSuite Data File
++++++++++++++++++++++++++++++++++++
Date: Fri Oct 02 17:56:31 EDT 2015
User: lab3
Dark Spectrum Present: No
Reference Spectrum Present: No
Number of Sampled Component Spectra: 1
Spectrometers: USB2E7196
Integration Time (usec): 46000 (USB2E7196)
Spectra Averaged: 1500 (USB2E7196)
Boxcar Smoothing: 10 (USB2E7196)
Correct for Electrical Dark: No (USB2E7196)
Strobe/Lamp Enabled: No (USB2E7196)
Correct for Detector Non-linearity: No (USB2E7196)
Correct for Stray Light: No (USB2E7196)
Number of Pixels in Processed Spectrum: 2048
>>>>>Begin Processed Spectral Data<<<<<
339.09	0.00
339.48	215.93
339.86	217.39
340.24	218.68
340.63	220.24
341.01	223.57
341.39	222.98
341.78	224.27
342.16	225.46
342.54	225.66
342.93	214.24
343.31	225.06
343.69	225.60
344.07	226.05
344.46	226.48
344.84	226.87
345.22	227.08
345.60	227.33
345.99	227.51
346.37	227.64
346.75	227.76
347.13	227.84
347.52	227.90
347.90	228.00
348.28	228.04
348.66	228.09
349.05	228.08
349.43	228.12
349.81	228.18
350.19	228.23
350.57	228.29
350.96	228.37
351.34	228.46
351.72	228.56
352.10	228.67
352.48	228.74
352.87	228.79
353.25	228.85
353.63	228.91
354.01	228.98
354.39	229.06
354.77	229.13
355.15	229.23
355.54	229.28
355.92	229.31
356.30	229.38
356.68	229.53
357.06	229.61
357.44	229.66
357.82	229.72
358.20	229.83
358.58	229.90
358.97	229.96
359.35	230.05
359.73	230.13
360.11	230.18
360.49	230.24
360.87	230.29
361.25	230.35
361.63	230.43
362.01	230.48
362.39	230.51
362.77	230.56
363.15	230.59
363.53	230.63
363.91	230.68
364.29	230.71
364.67	230.62
365.05	230.65
365.43	230.68
365.81	230.72
366.19	230.74
366.57	230.80
366.95	230.80
367.33	230.76
367.71	230.76
368.09	230.79
368.47	230.80
368.85	230.79
369.23	230.80
369.61	230.76
369.99	230.78
370.37	230.78
370.75	230.86
371.13	230.82
371.51	230.78
371.89	230.75
372.27	230.73
372.65	230.71
373.03	230.67
373.41	230.63
373.78	230.58
374.16	230.48
374.54	230.39
374.92	230.34
375.30	230.30
375.68	230.23
376.06	230.18
376.44	230.11
376.82	230.08
377.19	230.03
377.57	229.97
377.95	229.89
378.33	229.82
378.71	229.66
379.09	229.62
379.47	229.58
379.84	229.51
380.22	229.45
380.60	229.38
380.98	229.33
381.36	229.28
381.73	229.21
382.11	229.19
382.49	229.15
382.87	229.09
383.25	229.05
383.62	229.14
384.00	229.07
384.38	229.04
384.76	229.02
385.13	229.01
385.51	228.97
385.89	228.91
386.27	228.88
386.64	228.86
387.02	228.81
387.40	228.77
387.78	228.75
388.15	228.73
388.53	228.70
388.91	228.66
389.29	228.63
389.66	228.62
390.04	228.58
390.42	228.57
390.79	228.56
391.17	228.53
391.55	228.38
391.92	228.37
392.30	228.37
392.68	228.33
393.05	228.30
393.43	228.30
393.81	228.30
394.18	228.29
394.56	228.29
394.94	228.33
395.31	228.32
395.69	228.36
396.06	228.38
396.44	228.41
396.82	228.42
397.19	228.50
397.57	228.51
397.95	228.56
398.32	228.56
398.70	228.60
399.07	228.66
399.45	228.69
399.82	228.73
400.20	228.76
400.58	228.82
400.95	228.84
401.33	228.92
401.70	229.08
402.08	229.17
402.45	229.24
402.83	229.35
403.20	229.46
403.58	229.54
403.95	229.67
404.33	229.82
404.71	229.95
405.08	230.15
405.46	230.30
405.83	230.48
406.21	230.66
406.58	230.87
406.96	231.08
407.33	231.32
407.70	231.59
408.08	231.96
408.45	232.28
408.83	232.63
409.20	232.94
409.58	233.21
409.95	233.59
410.33	234.01
410.70	234.39
411.08	234.86
411.45	235.35
411.82	235.84
412.20	236.41
412.57	237.09
412.95	237.63
413.32	238.33
413.69	239.05
414.07	239.82
414.44	240.65
414.82	241.49
415.19	242.49
415.56	243.49
415.94	244.53
416.31	245.71
416.68	246.88
417.06	248.24
417.43	249.52
417.81	250.99
418.18	252.49
418.55	254.14
418.93	255.85
419.30	257.63
419.67	259.52
420.04	261.46
420.42	263.48
420.79	265.82
421.16	268.16
421.54	270.54
421.91	273.04
422.28	275.64
422.66	278.43
423.03	281.11
423.40	283.91
423.77	286.91
424.15	289.98
424.52	293.17
424.89	296.64
425.26	300.09
425.64	303.30
426.01	306.90
426.38	310.58
426.75	314.37
427.13	318.27
427.50	322.35
427.87	326.60
428.24	330.89
428.61	335.02
428.99	339.48
429.36	344.36
429.73	349.04
430.10	353.74
430.47	358.55
430.85	363.48
431.22	368.80
431.59	374.26
431.96	379.59
432.33	385.53
432.70	391.18
433.08	397.83
433.45	404.14
433.82	410.35
434.19	417.29
434.56	424.15
434.93	430.77
435.30	437.32
435.68	444.72
436.05	451.97
436.42	459.18
436.79	465.78
437.16	472.90
437.53	480.49
437.90	488.08
438.27	495.52
438.64	503.55
439.01	510.81
439.38	517.45
439.75	523.83
440.13	531.03
440.50	537.84
440.87	543.27
441.24	549.17
441.61	555.62
441.98	560.27
442.35	565.79
442.72	571.41
443.09	576.73
443.46	580.03
443.83	582.42
444.20	584.35
444.57	587.31
444.94	588.90
445.31	590.55
445.68	591.89
446.05	592.76
446.42	592.11
446.79	591.28
447.16	590.52
447.53	589.79
447.90	587.19
448.27	584.70
448.64	581.04
449.01	578.43
449.37	573.52
449.74	569.06
450.11	563.38
450.48	557.24
450.85	551.10
451.22	545.81
451.59	540.65
451.96	535.99
452.33	529.32
452.70	523.42
453.07	516.25
453.43	509.13
453.80	502.23
454.17	495.64
454.54	489.58
454.91	482.76
455.28	476.39
455.65	470.38
456.02	464.07
456.38	458.98
456.75	452.46
457.12	447.21
457.49	441.93
457.86	436.97
458.23	432.61
458.59	427.82
458.96	422.92
459.33	418.62
459.70	414.24
460.07	410.94
460.43	407.02
460.80	403.40
461.17	400.24
461.54	396.82
461.91	393.63
462.27	390.40
462.64	387.80
463.01	384.76
463.38	381.73
463.74	378.99
464.11	376.58
464.48	374.42
464.85	372.07
465.21	370.30
465.58	368.31
465.95	366.03
466.32	364.22
466.68	362.43
467.05	360.63
467.42	358.87
467.78	356.99
468.15	355.24
468.52	353.96
468.88	352.25
469.25	350.68
469.62	349.46
469.98	348.11
470.35	346.91
470.72	345.83
471.08	344.73
471.45	343.80
471.82	342.78
472.18	341.68
472.55	340.98
472.92	340.08
473.28	339.38
473.65	338.62
474.02	337.90
474.38	337.31
474.75	336.97
475.11	336.50
475.48	336.26
475.85	336.04
476.21	335.93
476.58	335.85
476.94	336.00
477.31	336.08
477.67	336.18
478.04	336.38
478.41	336.67
478.77	337.09
479.14	337.35
479.50	337.85
479.87	338.49
480.23	339.13
480.60	339.77
480.96	340.42
481.33	341.38
481.69	342.33
482.06	343.28
482.42	344.15
482.79	345.22
483.15	346.47
483.52	347.88
483.88	349.23
484.25	350.68
484.61	352.19
484.98	353.83
485.34	355.67
485.71	357.61
486.07	359.67
486.44	361.72
486.80	364.01
487.17	366.38
487.53	368.99
487.90	371.71
488.26	374.68
488.62	377.81
488.99	380.96
489.35	384.26
489.72	387.84
490.08	391.61
490.44	395.51
490.81	399.55
491.17	403.70
491.54	408.17
491.90	412.79
492.26	417.72
492.63	422.90
492.99	428.29
493.36	433.86
493.72	439.74
494.08	445.77
494.45	452.16
494.81	458.82
495.17	465.66
495.54	472.86
495.90	480.35
496.26	488.02
496.63	495.94
496.99	504.17
497.35	512.78
497.72	521.66
498.08	530.78
498.44	540.20
498.80	550.18
499.17	560.39
499.53	570.90
499.89	581.80
500.26	592.89
500.62	604.31
500.98	616.33
501.34	628.52
501.71	641.22
502.07	654.14
502.43	667.58
502.79	681.20
503.16	695.29
503.52	709.61
503.88	724.34
504.24	739.49
504.60	754.87
504.97	770.75
505.33	787.03
505.69	804.20
506.05	821.68
506.41	839.06
506.78	856.69
507.14	874.86
507.50	893.43
507.86	912.39
508.22	931.52
508.59	950.52
508.95	970.40
509.31	990.97
509.67	1012.19
510.03	1033.40
510.39	1054.75
510.75	1076.32
511.12	1098.09
511.48	1119.99
511.84	1142.05
512.20	1164.54
512.56	1187.79
512.92	1211.08
513.28	1234.01
513.64	1257.25
514.00	1280.93
514.37	1304.83
514.73	1328.85
515.09	1352.77
515.45	1377.01
515.81	1401.39
516.17	1425.98
516.53	1449.95
516.89	1473.91
517.25	1498.10
517.61	1522.24
517.97	1546.80
518.33	1570.85
518.69	1594.91
519.05	1619.51
519.41	1644.41
519.77	1669.27
520.13	1693.59
520.49	1717.84
520.85	1742.50
521.21	1766.54
521.57	1791.12
521.93	1815.20
522.29	1839.70
522.65	1863.83
523.01	1887.90
523.37	1911.57
523.73	1935.91
524.09	1960.10
524.45	1984.04
524.81	2007.60
525.17	2030.98
525.53	2053.76
525.89	2077.02
526.25	2100.29
526.61	2122.60
526.97	2145.04
527.33	2167.60
527.68	2189.67
528.04	2211.05
528.40	2231.43
528.76	2252.39
529.12	2272.67
529.48	2292.57
529.84	2310.81
530.20	2329.66
530.56	2347.92
530.91	2366.43
531.27	2384.47
531.63	2401.80
531.99	2418.75
532.35	2434.98
532.71	2451.22
533.07	2468.13
533.42	2483.34
533.78	2499.55
534.14	2515.89
534.50	2531.08
534.86	2546.22
535.21	2559.49
535.57	2573.20
535.93	2586.80
536.29	2599.11
536.65	2611.38
537.00	2623.09
537.36	2635.64
537.72	2646.52
538.08	2657.12
538.44	2667.03
538.79	2676.59
539.15	2685.22
539.51	2693.40
539.87	2700.88
540.22	2706.73
540.58	2712.74
540.94	2719.95
541.29	2725.29
541.65	2728.84
542.01	2732.08
542.37	2734.43
542.72	2738.18
543.08	2740.28
543.44	2742.81
543.79	2744.31
544.15	2745.02
544.51	2746.06
544.87	2745.97
545.22	2745.19
545.58	2743.72
545.94	2742.35
546.29	2739.65
546.65	2736.95
547.01	2734.32
547.36	2732.41
547.72	2730.23
548.07	2726.44
548.43	2721.02
548.79	2714.99
549.14	2710.30
549.50	2705.46
549.86	2699.89
550.21	2693.16
550.57	2687.31
550.92	2679.28
551.28	2671.97
551.64	2664.79
551.99	2657.10
552.35	2648.84
552.70	2640.91
553.06	2633.27
553.41	2624.87
553.77	2616.25
554.13	2607.48
554.48	2597.79
554.84	2587.06
555.19	2577.07
555.55	2566.85
555.90	2556.71
556.26	2546.99
556.61	2536.16
556.97	2523.85
557.32	2512.08
557.68	2500.10
558.03	2488.07
558.39	2477.06
558.74	2466.25
559.10	2453.84
559.45	2441.78
559.81	2430.28
560.16	2418.07
560.52	2406.00
560.87	2394.28
561.23	2381.72
561.58	2369.55
561.94	2356.86
562.29	2343.53
562.64	2330.88
563.00	2317.93
563.35	2305.60
563.71	2292.99
564.06	2280.19
564.42	2268.14
564.77	2255.33
565.12	2242.60
565.48	2229.77
565.83	2217.05
566.19	2204.30
566.54	2191.50
566.89	2177.47
567.25	2163.73
567.60	2151.19
567.96	2137.88
568.31	2123.27
568.66	2109.53
569.02	2096.63
569.37	2083.78
569.72	2071.47
570.08	2057.83
570.43	2043.98
570.78	2029.67
571.14	2014.80
571.49	2000.73
571.84	1987.14
572.20	1972.28
572.55	1957.81
572.90	1943.01
573.26	1928.19
573.61	1912.90
573.96	1898.03
574.31	1883.55
574.67	1868.90
575.02	1853.43
575.37	1837.96
575.72	1823.38
576.08	1808.99
576.43	1793.54
576.78	1778.51
577.13	1763.81
577.49	1749.47
577.84	1735.59
578.19	1720.85
578.54	1706.31
578.90	1691.30
579.25	1676.19
579.60	1662.70
579.95	1648.89
580.30	1635.04
580.66	1620.93
581.01	1606.73
581.36	1592.65
581.71	1579.52
582.06	1566.21
582.42	1553.11
582.77	1540.01
583.12	1526.81
583.47	1513.56
583.82	1500.41
584.17	1486.91
584.53	1472.98
584.88	1459.43
585.23	1445.47
585.58	1432.48
585.93	1419.71
586.28	1407.59
586.63	1395.51
586.98	1382.80
587.34	1370.23
587.69	1357.41
588.04	1344.93
588.39	1332.89
588.74	1320.84
589.09	1308.63
589.44	1296.03
589.79	1284.11
590.14	1272.30
590.49	1260.46
590.84	1248.70
591.19	1237.36
591.54	1225.86
591.89	1214.54
592.25	1203.32
592.60	1191.86
592.95	1180.67
593.30	1169.63
593.65	1158.31
594.00	1147.05
594.35	1136.51
594.70	1125.58
595.05	1115.52
595.40	1105.35
595.75	1094.97
596.10	1085.18
596.45	1074.96
596.80	1065.13
597.15	1055.08
597.50	1045.17
597.85	1035.60
598.19	1025.92
598.54	1016.33
598.89	1007.12
599.24	998.22
599.59	989.26
599.94	981.16
600.29	972.84
600.64	964.22
600.99	955.25
601.34	946.70
601.69	937.80
602.04	929.54
602.39	921.12
602.74	912.66
603.08	904.25
603.43	895.82
603.78	887.57
604.13	879.52
604.48	871.42
604.83	863.52
605.18	855.51
605.53	847.65
605.87	839.57
606.22	831.94
606.57	824.18
606.92	816.25
607.27	808.23
607.62	800.65
607.96	793.46
608.31	786.71
608.66	779.74
609.01	773.06
609.36	766.51
609.70	759.61
610.05	752.84
610.40	746.28
610.75	739.70
611.10	733.47
611.44	727.07
611.79	720.78
612.14	714.40
612.49	708.18
612.83	702.25
613.18	696.43
613.53	690.43
613.88	684.57
614.22	679.16
614.57	673.62
614.92	667.89
615.27	662.30
615.61	656.74
615.96	651.27
616.31	645.80
616.65	640.38
617.00	635.25
617.35	630.17
617.70	625.17
618.04	620.16
618.39	615.12
618.74	610.37
619.08	605.63
619.43	600.98
619.78	596.37
620.12	591.69
620.47	587.24
620.82	582.88
621.16	578.46
621.51	573.91
621.85	569.49
622.20	565.26
622.55	561.04
622.89	556.89
623.24	552.71
623.59	548.62
623.93	544.67
624.28	540.80
624.62	537.02
624.97	533.28
625.32	529.57
625.66	525.77
626.01	521.92
626.35	518.17
626.70	514.47
627.04	510.91
627.39	507.34
627.73	503.91
628.08	500.57
628.43	497.25
628.77	494.04
629.12	490.91
629.46	487.75
629.81	484.53
630.15	481.35
630.50	478.27
630.84	475.21
631.19	472.22
631.53	469.33
631.88	466.42
632.22	463.52
632.57	460.91
632.91	458.33
633.26	455.83
633.60	453.33
633.95	450.94
634.29	448.44
634.64	446.01
634.98	443.35
635.32	440.89
635.67	438.62
636.01	436.24
636.36	433.94
636.70	431.82
637.05	429.63
637.39	427.47
637.73	425.34
638.08	423.33
638.42	421.27
638.77	419.12
639.11	416.89
639.45	414.77
639.80	412.60
640.14	410.52
640.49	408.44
640.83	406.33
641.17	404.30
641.52	402.32
641.86	400.35
642.20	398.62
642.55	396.70
642.89	394.80
643.23	393.00
643.58	391.38
643.92	389.59
644.26	387.89
644.61	386.25
644.95	384.56
645.29	382.80
645.64	381.06
645.98	379.41
646.32	377.87
646.66	376.31
647.01	374.76
647.35	373.29
647.69	371.80
648.04	370.43
648.38	368.97
648.72	367.55
649.06	366.14
649.41	364.74
649.75	363.38
650.09	362.04
650.43	360.72
650.78	359.32
651.12	357.97
651.46	356.67
651.80	355.38
652.14	354.15
652.49	352.96
652.83	351.76
653.17	350.59
653.51	349.46
653.85	348.37
654.20	347.23
654.54	346.02
654.88	344.90
655.22	343.80
655.56	342.69
655.90	341.64
656.25	340.62
656.59	339.58
656.93	338.62
657.27	337.65
657.61	336.62
657.95	335.64
658.29	334.66
658.64	333.75
658.98	332.83
659.32	331.91
659.66	331.03
660.00	330.18
660.34	329.32
660.68	328.43
661.02	327.49
661.36	326.60
661.70	325.75
662.05	324.91
662.39	324.08
662.73	323.35
663.07	322.59
663.41	321.80
663.75	320.99
664.09	320.18
664.43	319.35
664.77	318.61
665.11	317.82
665.45	317.09
665.79	316.36
666.13	315.57
666.47	314.80
666.81	314.01
667.15	313.19
667.49	312.50
667.83	311.85
668.17	311.19
668.51	310.58
668.85	309.97
669.19	309.38
669.53	308.71
669.87	308.01
670.21	307.35
670.55	306.72
670.89	306.17
671.23	305.59
671.57	305.01
671.91	304.47
672.25	303.96
672.58	303.42
672.92	302.82
673.26	302.33
673.60	301.81
673.94	301.32
674.28	300.86
674.62	300.35
674.96	299.80
675.30	299.30
675.64	298.76
675.97	298.21
676.31	297.65
676.65	297.13
676.99	296.67
677.33	296.13
677.67	295.65
678.01	295.09
678.34	294.59
678.68	294.13
679.02	293.60
679.36	293.08
679.70	292.57
680.04	292.10
680.37	291.60
680.71	291.14
681.05	290.68
681.39	290.20
681.73	289.68
682.06	289.18
682.40	288.69
682.74	288.27
683.08	287.90
683.42	287.47
683.75	287.06
684.09	286.57
684.43	286.16
684.77	285.72
685.10	285.33
685.44	284.91
685.78	284.49
686.12	284.10
686.45	283.68
686.79	283.26
687.13	282.86
687.46	282.44
687.80	282.04
688.14	281.58
688.48	281.19
688.81	280.79
689.15	280.44
689.49	280.03
689.82	279.61
690.16	279.13
690.50	278.74
690.83	278.32
691.17	277.91
691.51	277.50
691.84	277.11
692.18	276.69
692.52	276.27
692.85	275.87
693.19	275.50
693.52	275.11
693.86	274.71
694.20	274.33
694.53	273.96
694.87	273.54
695.21	273.15
695.54	272.76
695.88	272.37
696.21	271.94
696.55	271.56
696.88	271.19
697.22	270.80
697.56	270.43
697.89	270.02
698.23	269.65
698.56	269.26
698.90	268.90
699.23	268.50
699.57	268.11
699.90	267.74
700.24	267.34
700.58	267.00
700.91	266.68
701.25	266.44
701.58	266.15
701.92	265.84
702.25	265.52
702.59	265.17
702.92	264.82
703.26	264.48
703.59	264.13
703.93	263.89
704.26	263.58
704.60	263.23
704.93	262.89
705.26	262.55
705.60	262.27
705.93	261.91
706.27	261.64
706.60	261.38
706.94	261.10
707.27	260.75
707.61	260.43
707.94	260.09
708.27	259.64
708.61	259.27
708.94	258.93
709.28	258.63
709.61	258.32
709.94	258.06
710.28	257.79
710.61	257.54
710.95	257.15
711.28	256.95
711.61	256.68
711.95	256.43
712.28	256.15
712.61	255.85
712.95	255.67
713.28	255.46
713.61	255.16
713.95	254.85
714.28	254.61
714.61	254.35
714.95	254.10
715.28	253.86
715.61	253.61
715.95	253.38
716.28	253.15
716.61	252.95
716.95	252.68
717.28	252.44
717.61	252.20
717.94	251.97
718.28	251.65
718.61	251.42
718.94	251.17
719.27	250.95
719.61	250.75
719.94	250.48
720.27	250.20
720.60	249.98
720.94	249.76
721.27	249.55
721.60	249.36
721.93	249.14
722.27	248.96
722.60	248.78
722.93	248.55
723.26	248.34
723.59	248.09
723.93	247.91
724.26	247.71
724.59	247.49
724.92	247.30
725.25	247.16
725.59	246.97
725.92	246.82
726.25	246.64
726.58	246.47
726.91	246.29
727.24	246.13
727.57	245.96
727.91	245.78
728.24	245.63
728.57	245.45
728.90	245.30
729.23	245.10
729.56	244.97
729.89	244.81
730.22	244.65
730.55	244.50
730.89	244.34
731.22	244.17
731.55	244.02
731.88	243.86
732.21	243.68
732.54	243.52
732.87	243.37
733.20	243.22
733.53	243.05
733.86	242.91
734.19	242.73
734.52	242.60
734.85	242.54
735.18	242.37
735.51	242.25
735.84	242.11
736.17	242.01
736.50	241.81
736.83	241.83
737.16	241.69
737.49	241.56
737.82	241.43
738.15	241.32
738.48	241.21
738.81	241.07
739.14	240.93
739.47	240.79
739.80	240.65
740.13	240.53
740.46	240.39
740.79	240.25
741.12	240.13
741.45	239.99
741.78	239.80
742.11	239.72
742.44	239.57
742.77	239.46
743.10	239.32
743.43	239.20
743.75	238.96
744.08	239.04
744.41	238.91
744.74	238.78
745.07	238.64
745.40	238.55
745.73	238.49
746.06	238.39
746.39	238.30
746.71	238.19
747.04	238.07
747.37	237.98
747.70	237.90
748.03	237.80
748.36	237.73
748.68	237.62
749.01	237.48
749.34	237.40
749.67	237.30
750.00	237.22
750.33	237.21
750.65	237.12
750.98	236.84
751.31	236.76
751.64	236.67
751.97	236.64
752.29	236.54
752.62	236.39
752.95	236.29
753.28	236.18
753.60	236.08
753.93	236.03
754.26	235.94
754.59	235.80
754.91	235.70
755.24	235.60
755.57	235.57
755.90	235.48
756.22	235.38
756.55	235.28
756.88	235.18
757.20	235.02
757.53	234.89
757.86	234.80
758.19	234.73
758.51	234.65
758.84	234.51
759.17	234.42
759.49	234.35
759.82	234.33
760.15	234.28
760.47	234.20
760.80	234.09
761.13	234.04
761.45	233.98
761.78	233.91
762.11	233.86
762.43	233.72
762.76	233.66
763.08	233.61
763.41	233.55
763.74	233.48
764.06	233.41
764.39	233.36
764.71	233.31
765.04	233.23
765.37	233.16
765.69	233.11
766.02	233.05
766.34	232.99
766.67	232.88
767.00	232.85
767.32	232.87
767.65	232.90
767.97	232.84
768.30	232.80
768.62	232.76
768.95	232.68
769.27	232.63
769.60	232.59
769.92	232.51
770.25	232.44
770.57	232.38
770.90	232.33
771.22	232.28
771.55	232.24
771.87	232.21
772.20	232.16
772.52	232.21
772.85	232.31
773.17	232.28
773.50	232.23
773.82	232.17
774.15	232.06
774.47	231.95
774.80	231.89
775.12	231.85
775.45	231.81
775.77	231.79
776.09	231.77
776.42	231.74
776.74	231.75
777.07	231.72
777.39	231.69
777.72	231.66
778.04	231.64
778.36	231.59
778.69	231.56
779.01	231.54
779.33	231.40
779.66	231.23
779.98	231.19
780.31	231.17
780.63	231.18
780.95	231.18
781.28	231.14
781.60	231.11
781.92	231.08
782.25	231.04
782.57	231.01
782.89	230.96
783.22	230.91
783.54	230.86
783.86	230.85
784.19	230.82
784.51	230.83
784.83	230.79
785.16	230.76
785.48	230.74
785.80	230.71
786.12	230.70
786.45	230.67
786.77	230.65
787.09	230.63
787.42	230.56
787.74	230.54
788.06	230.51
788.38	230.48
788.71	230.45
789.03	230.43
789.35	230.42
789.67	230.40
789.99	230.39
790.32	230.35
790.64	230.33
790.96	230.42
791.28	230.36
791.61	230.33
791.93	230.32
792.25	230.30
792.57	230.36
792.89	230.32
793.21	230.31
793.54	230.28
793.86	230.24
794.18	230.23
794.50	230.19
794.82	230.17
795.14	230.17
795.47	230.18
795.79	230.17
796.11	230.12
796.43	230.10
796.75	230.09
797.07	230.08
797.39	230.05
797.71	229.93
798.04	229.94
798.36	229.92
798.68	229.91
799.00	229.89
799.32	229.81
799.64	229.82
799.96	229.80
800.28	229.81
800.60	229.80
800.92	229.79
801.24	229.77
801.56	229.77
801.89	229.75
802.21	229.73
802.53	229.69
802.85	229.70
803.17	229.75
803.49	229.69
803.81	229.67
804.13	229.64
804.45	229.61
804.77	229.60
805.09	229.58
805.41	229.55
805.73	229.51
806.05	229.46
806.37	229.44
806.69	229.41
807.01	229.39
807.33	229.39
807.65	229.34
807.97	229.36
808.28	229.34
808.60	229.33
808.92	229.29
809.24	229.36
809.56	229.33
809.88	229.27
810.20	229.28
810.52	229.30
810.84	229.27
811.16	229.25
811.48	229.22
811.80	229.26
812.12	229.25
812.43	229.26
812.75	229.27
813.07	229.24
813.39	229.24
813.71	229.21
814.03	229.17
814.35	229.17
814.67	229.12
814.98	229.09
815.30	229.08
815.62	229.06
815.94	228.97
816.26	228.97
816.58	228.94
816.89	228.93
817.21	228.89
817.53	228.89
817.85	228.89
818.17	228.88
818.48	228.82
818.80	228.84
819.12	228.80
819.44	228.77
819.76	228.76
820.07	228.74
820.39	228.73
820.71	228.74
821.03	228.72
821.34	228.71
821.66	228.71
821.98	228.72
822.30	228.70
822.61	228.77
822.93	228.74
823.25	228.73
823.57	228.71
823.88	228.71
824.20	228.71
824.52	228.72
824.83	228.70
825.15	228.68
825.47	228.67
825.79	228.68
826.10	228.67
826.42	228.66
826.74	228.67
827.05	228.65
827.37	228.64
827.69	228.64
828.00	228.63
828.32	228.62
828.64	228.60
828.95	228.66
829.27	228.61
829.58	228.61
829.90	228.63
830.22	228.63
830.53	228.61
830.85	228.59
831.17	228.56
831.48	228.56
831.80	228.57
832.11	228.55
832.43	228.52
832.75	228.52
833.06	228.58
833.38	228.54
833.69	228.54
834.01	228.54
834.32	228.53
834.64	228.51
834.96	228.51
835.27	228.50
835.59	228.45
835.90	228.43
836.22	228.42
836.53	228.39
836.85	228.36
837.16	228.48
837.48	228.48
837.79	228.52
838.11	228.52
838.42	228.51
838.74	228.51
839.05	228.51
839.37	228.50
839.68	228.43
840.00	228.42
840.31	228.44
840.63	228.43
840.94	228.41
841.26	228.40
841.57	228.39
841.88	228.39
842.20	228.37
842.51	228.35
842.83	228.34
843.14	228.45
843.46	228.46
843.77	228.38
844.08	228.37
844.40	228.32
844.71	228.30
845.03	228.28
845.34	228.27
845.65	228.26
845.97	228.26
846.28	228.25
846.60	228.26
846.91	228.22
847.22	228.21
847.54	228.23
847.85	228.23
848.16	228.22
848.48	228.19
848.79	228.25
849.10	228.27
849.42	228.28
849.73	228.16
850.04	228.14
850.36	228.10
850.67	228.12
850.98	228.12
851.30	228.13
851.61	228.12
851.92	228.12
852.23	228.16
852.55	228.16
852.86	228.17
853.17	228.18
853.49	228.20
853.80	228.23
854.11	228.24
854.42	228.26
854.74	228.25
855.05	228.27
855.36	228.20
855.67	228.20
855.99	228.21
856.30	228.37
856.61	228.36
856.92	228.37
857.23	228.37
857.55	228.35
857.86	228.35
858.17	228.38
858.48	228.36
858.79	228.33
859.11	228.34
859.42	228.33
859.73	228.31
860.04	228.30
860.35	228.27
860.66	228.23
860.98	228.21
861.29	228.23
861.60	228.22
861.91	228.24
862.22	228.22
862.53	228.19
862.84	228.04
863.16	228.06
863.47	228.04
863.78	228.03
864.09	228.04
864.40	228.05
864.71	228.04
865.02	228.04
865.33	228.02
865.64	228.00
865.95	228.01
866.27	228.08
866.58	228.07
866.89	228.09
867.20	228.08
867.51	228.06
867.82	228.05
868.13	228.08
868.44	228.05
868.75	228.07
869.06	228.08
869.37	228.09
869.68	228.05
869.99	228.07
870.30	228.07
870.61	228.08
870.92	228.06
871.23	228.04
871.54	228.07
871.85	228.10
872.16	228.11
872.47	228.10
872.78	228.03
873.09	228.03
873.40	228.02
873.71	228.04
874.02	228.05
874.33	228.03
874.64	228.00
874.95	228.03
875.26	228.01
875.56	228.01
875.87	228.00
876.18	228.00
876.49	228.12
876.80	228.11
877.11	228.09
877.42	228.10
877.73	228.10
878.04	228.08
878.35	228.08
878.66	228.09
878.96	228.09
879.27	228.09
879.58	228.08
879.89	228.08
880.20	228.10
880.51	228.10
880.82	228.11
881.12	228.11
881.43	228.09
881.74	228.08
882.05	228.07
882.36	228.07
882.67	228.09
882.97	227.95
883.28	227.94
883.59	227.93
883.90	227.95
884.21	227.96
884.51	227.95
884.82	227.92
885.13	227.92
885.44	227.91
885.74	227.91
886.05	227.90
886.36	227.90
886.67	227.85
886.98	227.93
887.28	227.93
887.59	227.92
887.90	227.93
888.20	227.92
888.51	227.95
888.82	227.92
889.13	227.93
889.43	228.05
889.74	228.05
890.05	228.04
890.35	228.03
890.66	228.01
890.97	228.00
891.28	227.99
891.58	227.98
891.89	227.98
892.20	227.97
892.50	227.96
892.81	227.94
893.12	227.95
893.42	227.87
893.73	227.89
894.04	227.89
894.34	227.90
894.65	227.90
894.95	227.88
895.26	227.89
895.57	227.94
895.87	227.81
896.18	227.83
896.48	227.84
896.79	227.84
897.10	227.86
897.40	227.87
897.71	227.88
898.01	227.88
898.32	227.89
898.63	227.89
898.93	227.90
899.24	227.91
899.54	227.90
899.85	227.90
900.15	227.88
900.46	227.88
900.76	227.88
901.07	227.88
901.38	227.87
901.68	227.88
901.99	227.82
902.29	227.83
902.60	227.82
902.90	227.80
903.21	227.81
903.51	227.79
903.82	227.81
904.12	227.80
904.43	227.81
904.73	227.80
905.03	227.80
905.34	227.93
905.64	227.92
905.95	227.91
906.25	227.90
906.56	227.90
906.86	227.90
907.17	227.89
907.47	227.90
907.77	227.89
908.08	227.86
908.38	227.86
908.69	227.87
908.99	227.89
909.30	227.90
909.60	227.90
909.90	227.91
910.21	227.86
910.51	227.84
910.81	227.85
911.12	227.86
911.42	227.87
911.73	227.74
912.03	227.74
912.33	227.78
912.64	227.77
912.94	227.76
913.24	227.74
913.55	227.73
913.85	227.71
914.15	227.72
914.46	227.75
914.76	227.73
915.06	227.72
915.37	227.69
915.67	227.68
915.97	227.67
916.27	227.64
916.58	227.65
916.88	227.66
917.18	227.64
917.49	227.71
917.79	227.70
918.09	227.73
918.39	227.75
918.70	227.74
919.00	227.75
919.30	227.82
919.60	227.82
919.91	227.81
920.21	227.83
920.51	227.81
920.81	227.79
921.12	227.83
921.42	227.83
921.72	227.84
922.02	227.85
922.32	227.87
922.63	227.87
922.93	227.94
923.23	227.95
923.53	227.94
923.83	227.86
924.13	227.87
924.44	227.86
924.74	227.88
925.04	227.90
925.34	227.89
925.64	227.84
925.94	227.84
926.24	227.90
926.55	227.88
926.85	227.90
927.15	227.90
927.45	227.88
927.75	227.88
928.05	227.88
928.35	227.87
928.65	227.89
928.95	227.90
929.26	227.85
929.56	227.86
929.86	227.87
930.16	227.87
930.46	227.86
930.76	227.86
931.06	227.80
931.36	227.77
931.66	227.79
931.96	227.80
932.26	227.81
932.56	227.76
932.86	227.77
933.16	227.77
933.46	227.76
933.76	227.75
934.06	227.78
934.36	227.82
934.66	227.81
934.96	227.78
935.26	227.79
935.56	227.81
935.86	227.78
936.16	227.76
936.46	227.75
936.76	227.75
937.06	227.73
937.36	227.74
937.66	227.75
937.96	227.74
938.26	227.72
938.56	227.70
938.86	227.71
939.16	227.73
939.46	227.74
939.76	227.75
940.06	227.75
940.35	227.73
940.65	227.67
940.95	227.68
941.25	227.65
941.55	227.64
941.85	227.62
942.15	227.66
942.45	227.69
942.75	227.69
943.04	227.70
943.34	227.73
943.64	227.72
943.94	227.69
944.24	227.69
944.54	227.70
944.84	227.70
945.13	227.69
945.43	227.66
945.73	227.66
946.03	227.64
946.33	227.63
946.62	227.62
946.92	227.62
947.22	227.62
947.52	227.64
947.82	227.64
948.11	227.63
948.41	227.61
948.71	227.57
949.01	227.58
949.31	227.57
949.60	227.54
949.90	227.57
950.20	227.57
950.50	227.57
950.79	227.56
951.09	227.59
951.39	227.58
951.69	227.57
951.98	227.60
952.28	227.61
952.58	227.60
952.87	227.59
953.17	227.61
953.47	227.59
953.76	227.59
954.06	227.57
954.36	227.56
954.66	227.55
954.95	227.58
955.25	227.60
955.55	227.60
955.84	227.59
956.14	227.59
956.44	227.59
956.73	227.58
957.03	227.60
957.32	227.60
957.62	227.59
957.92	227.62
958.21	227.59
958.51	227.74
958.81	227.75
959.10	227.77
959.40	227.80
959.69	227.80
959.99	227.81
960.29	227.81
960.58	227.82
960.88	227.86
961.17	227.86
961.47	227.85
961.76	227.85
962.06	227.87
962.36	227.86
962.65	227.87
962.95	227.87
963.24	227.85
963.54	227.84
963.83	227.85
964.13	227.84
964.42	227.82
964.72	227.72
965.01	227.72
965.31	227.71
965.60	227.68
965.90	227.75
966.19	227.72
966.49	227.74
966.78	227.74
967.08	227.72
967.37	227.72
967.67	227.70
967.96	227.72
968.26	227.72
968.55	227.73
968.85	227.73
969.14	227.73
969.43	227.74
969.73	227.72
970.02	227.72
970.32	227.71
970.61	227.70
970.91	227.67
971.20	227.66
971.49	227.65
971.79	227.67
972.08	227.58
972.38	227.59
972.67	227.58
972.96	227.59
973.26	227.57
973.55	227.61
973.85	227.60
974.14	227.59
974.43	227.59
974.73	227.56
975.02	227.55
975.31	227.55
975.61	227.54
975.90	227.53
976.19	227.51
976.49	227.52
976.78	227.53
977.07	227.53
977.37	227.53
977.66	227.55
977.95	227.53
978.24	227.54
978.54	227.57
978.83	227.56
979.12	227.55
979.42	227.56
979.71	227.53
980.00	227.53
980.29	227.53
980.59	227.51
980.88	227.55
981.17	227.54
981.46	227.54
981.76	227.54
982.05	227.57
982.34	227.59
982.63	227.58
982.93	227.58
983.22	227.60
983.51	227.60
983.80	227.61
984.09	227.62
984.39	227.61
984.68	227.60
984.97	227.60
985.26	227.59
985.55	227.59
985.85	227.56
986.14	227.58
986.43	227.60
986.72	227.58
987.01	227.54
987.30	227.54
987.59	227.53
987.89	227.54
988.18	227.51
988.47	227.50
988.76	227.49
989.05	227.48
989.34	227.46
989.63	227.49
989.92	227.47
990.22	227.46
990.51	227.46
990.80	227.45
991.09	227.45
991.38	227.47
991.67	227.46
991.96	227.45
992.25	227.45
992.54	227.43
992.83	227.44
993.12	227.44
993.41	227.46
993.70	227.51
993.99	227.52
994.28	227.54
994.58	227.56
994.87	227.55
995.16	227.55
995.45	227.54
995.74	227.49
996.03	227.51
996.32	227.54
996.61	227.56
996.90	227.56
997.19	227.56
997.48	227.54
997.77	227.55
998.06	227.55
998.34	227.55
998.63	227.54
998.92	227.55
999.21	227.57
999.50	227.57
999.79	227.53
1000.08	227.54
1000.37	227.54
1000.66	227.52
1000.95	227.56
1001.24	227.57
1001.53	227.59
1001.82	227.60
1002.11	227.57
1002.40	227.58
1002.68	227.60
1002.97	227.68
1003.26	227.68
1003.55	227.67
1003.84	227.68
1004.13	227.72
1004.42	227.72
1004.71	227.72
1004.99	227.71
1005.28	227.74
1005.57	227.74
1005.86	227.73
1006.15	227.71
1006.44	227.69
1006.72	227.70
1007.01	227.68
1007.30	227.68
1007.59	227.66
1007.88	227.67
1008.17	227.68
1008.45	227.65
1008.74	227.61
1009.03	227.56
1009.32	227.57
1009.60	227.57
1009.89	227.56
1010.18	227.50
1010.47	227.49
1010.76	227.48
1011.04	227.48
1011.33	227.47
1011.62	227.47
1011.91	227.48
1012.19	227.49
1012.48	227.50
1012.77	227.50
1013.05	227.54
1013.34	227.55
1013.63	227.55
1013.92	227.54
1014.20	227.53
1014.49	227.53
1014.78	227.53
1015.06	227.49
1015.35	227.48
1015.64	227.49
1015.92	227.51
1016.21	227.53
1016.50	227.53
1016.78	227.55
1017.07	227.56
1017.36	227.54
1017.64	227.53
1017.93	227.54
1018.22	227.52
1018.50	227.52
1018.79	227.52
1019.08	227.47
1019.36	227.46
1019.65	227.45
1019.93	227.49
1020.22	227.51
1020.51	227.58
1020.79	227.57
1021.08	227.28
1021.36	227.44
1021.65	227.53
1021.94	227.49
1022.22	227.35
1022.51	227.35
1022.79	228.19
1023.08	227.61
1023.36	229.03
1023.65	227.18
>>>>>End Processed Spectral Data<<<<<
