SpectraSuite Data File
++++++++++++++++++++++++++++++++++++
Date: Fri Oct 02 19:10:44 EDT 2015
User: lab3
Dark Spectrum Present: No
Reference Spectrum Present: No
Number of Sampled Component Spectra: 1
Spectrometers: USB2E7196
Integration Time (usec): 46000 (USB2E7196)
Spectra Averaged: 1500 (USB2E7196)
Boxcar Smoothing: 10 (USB2E7196)
Correct for Electrical Dark: No (USB2E7196)
Strobe/Lamp Enabled: No (USB2E7196)
Correct for Detector Non-linearity: No (USB2E7196)
Correct for Stray Light: No (USB2E7196)
Number of Pixels in Processed Spectrum: 2048
>>>>>Begin Processed Spectral Data<<<<<
339.09	0.00
339.48	215.57
339.86	217.01
340.24	218.30
340.63	219.62
341.01	223.00
341.39	222.47
341.78	223.93
342.16	225.02
342.54	225.39
342.93	213.83
343.31	224.64
343.69	225.17
344.07	225.64
344.46	226.07
344.84	226.47
345.22	226.69
345.60	226.94
345.99	227.13
346.37	227.26
346.75	227.38
347.13	227.45
347.52	227.52
347.90	227.61
348.28	227.65
348.66	227.70
349.05	227.70
349.43	227.75
349.81	227.81
350.19	227.86
350.57	227.93
350.96	228.01
351.34	228.10
351.72	228.20
352.10	228.30
352.48	228.36
352.87	228.40
353.25	228.47
353.63	228.52
354.01	228.58
354.39	228.66
354.77	228.74
355.15	228.85
355.54	228.90
355.92	228.92
356.30	228.99
356.68	229.14
357.06	229.22
357.44	229.25
357.82	229.31
358.20	229.43
358.58	229.49
358.97	229.56
359.35	229.64
359.73	229.72
360.11	229.76
360.49	229.83
360.87	229.88
361.25	229.94
361.63	230.02
362.01	230.08
362.39	230.10
362.77	230.15
363.15	230.16
363.53	230.19
363.91	230.23
364.29	230.26
364.67	230.17
365.05	230.19
365.43	230.23
365.81	230.26
366.19	230.26
366.57	230.32
366.95	230.32
367.33	230.29
367.71	230.28
368.09	230.30
368.47	230.29
368.85	230.27
369.23	230.28
369.61	230.22
369.99	230.24
370.37	230.24
370.75	230.31
371.13	230.28
371.51	230.23
371.89	230.22
372.27	230.19
372.65	230.16
373.03	230.12
373.41	230.08
373.78	230.03
374.16	229.93
374.54	229.84
374.92	229.79
375.30	229.74
375.68	229.68
376.06	229.63
376.44	229.58
376.82	229.54
377.19	229.49
377.57	229.44
377.95	229.35
378.33	229.29
378.71	229.13
379.09	229.09
379.47	229.06
379.84	229.00
380.22	228.93
380.60	228.87
380.98	228.82
381.36	228.76
381.73	228.70
382.11	228.68
382.49	228.65
382.87	228.58
383.25	228.54
383.62	228.64
384.00	228.57
384.38	228.53
384.76	228.52
385.13	228.51
385.51	228.48
385.89	228.43
386.27	228.40
386.64	228.39
387.02	228.33
387.40	228.29
387.78	228.26
388.15	228.25
388.53	228.21
388.91	228.18
389.29	228.16
389.66	228.15
390.04	228.12
390.42	228.12
390.79	228.11
391.17	228.10
391.55	227.95
391.92	227.94
392.30	227.94
392.68	227.90
393.05	227.88
393.43	227.87
393.81	227.88
394.18	227.85
394.56	227.85
394.94	227.88
395.31	227.87
395.69	227.92
396.06	227.94
396.44	227.97
396.82	227.97
397.19	228.05
397.57	228.05
397.95	228.08
398.32	228.07
398.70	228.11
399.07	228.18
399.45	228.22
399.82	228.25
400.20	228.30
400.58	228.37
400.95	228.38
401.33	228.47
401.70	228.63
402.08	228.73
402.45	228.82
402.83	228.94
403.20	229.05
403.58	229.15
403.95	229.28
404.33	229.43
404.71	229.58
405.08	229.78
405.46	229.95
405.83	230.14
406.21	230.34
406.58	230.55
406.96	230.75
407.33	230.99
407.70	231.26
408.08	231.62
408.45	231.94
408.83	232.28
409.20	232.58
409.58	232.86
409.95	233.25
410.33	233.67
410.70	234.06
411.08	234.54
411.45	235.02
411.82	235.52
412.20	236.08
412.57	236.77
412.95	237.31
413.32	238.01
413.69	238.72
414.07	239.48
414.44	240.29
414.82	241.15
415.19	242.14
415.56	243.14
415.94	244.18
416.31	245.34
416.68	246.51
417.06	247.87
417.43	249.14
417.81	250.60
418.18	252.09
418.55	253.71
418.93	255.40
419.30	257.16
419.67	259.03
420.04	260.96
420.42	262.95
420.79	265.27
421.16	267.62
421.54	270.01
421.91	272.49
422.28	275.08
422.66	277.84
423.03	280.50
423.40	283.28
423.77	286.25
424.15	289.29
424.52	292.46
424.89	295.88
425.26	299.29
425.64	302.46
426.01	306.01
426.38	309.66
426.75	313.42
427.13	317.27
427.50	321.31
427.87	325.51
428.24	329.76
428.61	333.83
428.99	338.22
429.36	343.05
429.73	347.67
430.10	352.29
430.47	357.02
430.85	361.87
431.22	367.10
431.59	372.49
431.96	377.73
432.33	383.57
432.70	389.13
433.08	395.70
433.45	401.89
433.82	408.03
434.19	414.85
434.56	421.59
434.93	428.09
435.30	434.52
435.68	441.78
436.05	448.89
436.42	455.95
436.79	462.43
437.16	469.40
437.53	476.86
437.90	484.33
438.27	491.63
438.64	499.52
439.01	506.65
439.38	513.18
439.75	519.48
440.13	526.58
440.50	533.32
440.87	538.63
441.24	544.48
441.61	550.84
441.98	555.47
442.35	560.96
442.72	566.56
443.09	571.87
443.46	575.20
443.83	577.63
444.20	579.62
444.57	582.63
444.94	584.28
445.31	586.01
445.68	587.44
446.05	588.45
446.42	587.95
446.79	587.29
447.16	586.68
447.53	586.09
447.90	583.65
448.27	581.31
448.64	577.87
449.01	575.43
449.37	570.70
449.74	566.43
450.11	560.97
450.48	555.02
450.85	549.07
451.22	543.97
451.59	538.98
451.96	534.49
452.33	528.01
452.70	522.25
453.07	515.24
453.43	508.27
453.80	501.50
454.17	495.03
454.54	489.07
454.91	482.35
455.28	476.07
455.65	470.17
456.02	463.95
456.38	458.93
456.75	452.48
457.12	447.30
457.49	442.06
457.86	437.11
458.23	432.81
458.59	428.04
458.96	423.16
459.33	418.89
459.70	414.51
460.07	411.20
460.43	407.30
460.80	403.68
461.17	400.53
461.54	397.12
461.91	393.93
462.27	390.69
462.64	388.08
463.01	385.06
463.38	382.02
463.74	379.25
464.11	376.83
464.48	374.67
464.85	372.30
465.21	370.52
465.58	368.53
465.95	366.24
466.32	364.41
466.68	362.62
467.05	360.81
467.42	359.06
467.78	357.17
468.15	355.43
468.52	354.16
468.88	352.44
469.25	350.87
469.62	349.64
469.98	348.28
470.35	347.08
470.72	346.00
471.08	344.88
471.45	343.95
471.82	342.91
472.18	341.81
472.55	341.09
472.92	340.21
473.28	339.51
473.65	338.75
474.02	338.03
474.38	337.43
474.75	337.08
475.11	336.60
475.48	336.36
475.85	336.11
476.21	335.98
476.58	335.90
476.94	336.03
477.31	336.09
477.67	336.17
478.04	336.37
478.41	336.65
478.77	337.07
479.14	337.34
479.50	337.83
479.87	338.46
480.23	339.08
480.60	339.70
480.96	340.32
481.33	341.27
481.69	342.20
482.06	343.14
482.42	343.99
482.79	345.05
483.15	346.27
483.52	347.67
483.88	349.01
484.25	350.44
484.61	351.93
484.98	353.55
485.34	355.39
485.71	357.30
486.07	359.33
486.44	361.33
486.80	363.60
487.17	365.96
487.53	368.54
487.90	371.25
488.26	374.20
488.62	377.31
488.99	380.42
489.35	383.69
489.72	387.24
490.08	390.98
490.44	394.82
490.81	398.85
491.17	402.93
491.54	407.35
491.90	411.93
492.26	416.81
492.63	421.92
492.99	427.25
493.36	432.77
493.72	438.60
494.08	444.58
494.45	450.90
494.81	457.49
495.17	464.25
495.54	471.39
495.90	478.81
496.26	486.40
496.63	494.24
496.99	502.39
497.35	510.91
497.72	519.69
498.08	528.71
498.44	538.05
498.80	547.94
499.17	558.09
499.53	568.52
499.89	579.33
500.26	590.35
500.62	601.66
500.98	613.58
501.34	625.68
501.71	638.30
502.07	651.11
502.43	664.44
502.79	678.00
503.16	692.01
503.52	706.21
503.88	720.84
504.24	735.88
504.60	751.14
504.97	766.91
505.33	783.11
505.69	800.18
506.05	817.54
506.41	834.83
506.78	852.33
507.14	870.37
507.50	888.84
507.86	907.68
508.22	926.73
508.59	945.66
508.95	965.39
509.31	985.84
509.67	1006.95
510.03	1028.03
510.39	1049.22
510.75	1070.63
511.12	1092.30
511.48	1114.11
511.84	1136.06
512.20	1158.45
512.56	1181.64
512.92	1204.84
513.28	1227.73
513.64	1250.90
514.00	1274.55
514.37	1298.45
514.73	1322.40
515.09	1346.25
515.45	1370.43
515.81	1394.75
516.17	1419.29
516.53	1443.28
516.89	1467.19
517.25	1491.35
517.61	1515.45
517.97	1540.03
518.33	1564.10
518.69	1588.14
519.05	1612.75
519.41	1637.59
519.77	1662.58
520.13	1686.93
520.49	1711.22
520.85	1735.87
521.21	1759.99
521.57	1784.55
521.93	1808.62
522.29	1833.16
522.65	1857.29
523.01	1881.41
523.37	1905.18
523.73	1929.59
524.09	1953.83
524.45	1977.86
524.81	2001.49
525.17	2024.96
525.53	2047.83
525.89	2071.19
526.25	2094.58
526.61	2116.93
526.97	2139.50
527.33	2162.04
527.68	2184.28
528.04	2205.72
528.40	2226.24
528.76	2247.28
529.12	2267.71
529.48	2287.78
529.84	2306.15
530.20	2325.12
530.56	2343.51
530.91	2362.08
531.27	2380.28
531.63	2397.66
531.99	2414.66
532.35	2431.04
532.71	2447.56
533.07	2464.74
533.42	2480.13
533.78	2496.52
534.14	2513.09
534.50	2528.65
534.86	2544.01
535.21	2557.46
535.57	2571.47
535.93	2585.25
536.29	2597.78
536.65	2610.24
537.00	2622.10
537.36	2634.89
537.72	2646.10
538.08	2656.94
538.44	2667.11
538.79	2676.90
539.15	2685.82
539.51	2694.26
539.87	2701.98
540.22	2707.91
540.58	2713.93
540.94	2721.16
541.29	2726.72
541.65	2730.62
542.01	2733.84
542.37	2736.38
542.72	2740.30
543.08	2742.51
543.44	2745.28
543.79	2747.00
544.15	2747.86
544.51	2749.17
544.87	2749.33
545.22	2748.81
545.58	2747.61
545.94	2746.44
546.29	2743.86
546.65	2741.37
547.01	2738.97
547.36	2737.29
547.72	2735.50
548.07	2732.01
548.43	2727.00
548.79	2721.10
549.14	2716.52
549.50	2712.10
549.86	2706.75
550.21	2700.28
550.57	2694.76
550.92	2686.92
551.28	2679.73
551.64	2672.81
551.99	2665.33
552.35	2657.21
552.70	2649.38
553.06	2641.77
553.41	2633.50
553.77	2625.14
554.13	2616.62
554.48	2607.12
554.84	2596.51
555.19	2586.45
555.55	2576.39
555.90	2566.37
556.26	2556.90
556.61	2546.29
556.97	2534.01
557.32	2522.31
557.68	2510.46
558.03	2498.45
558.39	2487.62
558.74	2476.97
559.10	2464.63
559.45	2452.58
559.81	2441.18
560.16	2429.07
560.52	2417.23
560.87	2405.69
561.23	2393.21
561.58	2381.00
561.94	2368.41
562.29	2355.19
562.64	2342.70
563.00	2329.80
563.35	2317.44
563.71	2304.84
564.06	2292.01
564.42	2280.01
564.77	2267.37
565.12	2254.61
565.48	2241.79
565.83	2228.96
566.19	2216.25
566.54	2203.46
566.89	2189.59
567.25	2175.81
567.60	2163.35
567.96	2149.98
568.31	2135.26
568.66	2121.42
569.02	2108.63
569.37	2095.80
569.72	2083.53
570.08	2069.93
570.43	2056.06
570.78	2041.85
571.14	2026.99
571.49	2012.89
571.84	1999.31
572.20	1984.39
572.55	1969.83
572.90	1955.08
573.26	1940.33
573.61	1925.02
573.96	1910.21
574.31	1895.59
574.67	1880.96
575.02	1865.40
575.37	1849.93
575.72	1835.36
576.08	1820.98
576.43	1805.42
576.78	1790.29
577.13	1775.46
577.49	1760.96
577.84	1747.05
578.19	1732.23
578.54	1717.62
578.90	1702.45
579.25	1687.16
579.60	1673.57
579.95	1659.73
580.30	1645.78
580.66	1631.57
581.01	1617.35
581.36	1603.09
581.71	1589.88
582.06	1576.51
582.42	1563.33
582.77	1550.18
583.12	1536.95
583.47	1523.69
583.82	1510.50
584.17	1496.98
584.53	1483.07
584.88	1469.54
585.23	1455.59
585.58	1442.53
585.93	1429.63
586.28	1417.48
586.63	1405.37
586.98	1392.69
587.34	1380.07
587.69	1367.18
588.04	1354.66
588.39	1342.48
588.74	1330.47
589.09	1318.16
589.44	1305.50
589.79	1293.50
590.14	1281.55
590.49	1269.55
590.84	1257.67
591.19	1246.25
591.54	1234.60
591.89	1223.14
592.25	1211.83
592.60	1200.16
592.95	1188.91
593.30	1177.87
593.65	1166.51
594.00	1155.21
594.35	1144.53
594.70	1133.47
595.05	1123.27
595.40	1112.95
595.75	1102.46
596.10	1092.53
596.45	1082.32
596.80	1072.39
597.15	1062.28
597.50	1052.33
597.85	1042.77
598.19	1033.02
598.54	1023.37
598.89	1014.13
599.24	1005.21
599.59	996.17
599.94	988.03
600.29	979.65
600.64	970.95
600.99	961.87
601.34	953.22
601.69	944.24
602.04	935.96
602.39	927.52
602.74	919.06
603.08	910.61
603.43	902.14
603.78	893.82
604.13	885.72
604.48	877.53
604.83	869.55
605.18	861.48
605.53	853.58
605.87	845.42
606.22	837.69
606.57	829.84
606.92	821.85
607.27	813.81
607.62	806.14
607.96	798.89
608.31	792.11
608.66	785.10
609.01	778.36
609.36	771.73
609.70	764.82
610.05	757.96
610.40	751.36
610.75	744.71
611.10	738.39
611.44	731.95
611.79	725.61
612.14	719.20
612.49	712.90
612.83	706.87
613.18	701.00
613.53	695.00
613.88	689.06
614.22	683.57
614.57	677.97
614.92	672.18
615.27	666.55
615.61	660.94
615.96	655.42
616.31	649.90
616.65	644.42
617.00	639.21
617.35	634.08
617.70	629.00
618.04	623.94
618.39	618.84
618.74	614.00
619.08	609.20
619.43	604.51
619.78	599.83
620.12	595.10
620.47	590.57
620.82	586.14
621.16	581.73
621.51	577.17
621.85	572.71
622.20	568.42
622.55	564.14
622.89	559.93
623.24	555.71
623.59	551.56
623.93	547.56
624.28	543.66
624.62	539.84
624.97	536.07
625.32	532.30
625.66	528.45
626.01	524.54
626.35	520.76
626.70	517.02
627.04	513.45
627.39	509.85
627.73	506.39
628.08	503.00
628.43	499.61
628.77	496.34
629.12	493.13
629.46	489.96
629.81	486.70
630.15	483.45
630.50	480.31
630.84	477.20
631.19	474.17
631.53	471.24
631.88	468.29
632.22	465.35
632.57	462.69
632.91	460.09
633.26	457.57
633.60	455.04
633.95	452.58
634.29	450.03
634.64	447.56
634.98	444.88
635.32	442.39
635.67	440.09
636.01	437.69
636.36	435.36
636.70	433.17
637.05	430.99
637.39	428.83
637.73	426.70
638.08	424.67
638.42	422.59
638.77	420.39
639.11	418.14
639.45	415.98
639.80	413.76
640.14	411.65
640.49	409.52
640.83	407.38
641.17	405.32
641.52	403.29
641.86	401.28
642.20	399.50
642.55	397.55
642.89	395.63
643.23	393.80
643.58	392.14
643.92	390.34
644.26	388.61
644.61	386.93
644.95	385.19
645.29	383.42
645.64	381.66
645.98	379.98
646.32	378.44
646.66	376.87
647.01	375.31
647.35	373.81
647.69	372.29
648.04	370.92
648.38	369.44
648.72	368.02
649.06	366.58
649.41	365.16
649.75	363.78
650.09	362.42
650.43	361.06
650.78	359.65
651.12	358.29
651.46	356.97
651.80	355.68
652.14	354.42
652.49	353.20
652.83	351.97
653.17	350.79
653.51	349.63
653.85	348.52
654.20	347.36
654.54	346.15
654.88	345.00
655.22	343.88
655.56	342.77
655.90	341.70
656.25	340.69
656.59	339.63
656.93	338.66
657.27	337.69
657.61	336.66
657.95	335.65
658.29	334.65
658.64	333.71
658.98	332.75
659.32	331.83
659.66	330.95
660.00	330.08
660.34	329.21
660.68	328.32
661.02	327.38
661.36	326.47
661.70	325.60
662.05	324.76
662.39	323.93
662.73	323.17
663.07	322.38
663.41	321.58
663.75	320.77
664.09	319.96
664.43	319.12
664.77	318.37
665.11	317.57
665.45	316.84
665.79	316.11
666.13	315.35
666.47	314.55
666.81	313.76
667.15	312.92
667.49	312.20
667.83	311.53
668.17	310.86
668.51	310.23
668.85	309.62
669.19	309.03
669.53	308.35
669.87	307.66
670.21	307.01
670.55	306.38
670.89	305.82
671.23	305.22
671.57	304.63
671.91	304.08
672.25	303.56
672.58	303.04
672.92	302.42
673.26	301.92
673.60	301.43
673.94	300.93
674.28	300.49
674.62	299.98
674.96	299.42
675.30	298.91
675.64	298.38
675.97	297.82
676.31	297.26
676.65	296.73
676.99	296.28
677.33	295.73
677.67	295.24
678.01	294.68
678.34	294.18
678.68	293.74
679.02	293.21
679.36	292.70
679.70	292.19
680.04	291.73
680.37	291.23
680.71	290.76
681.05	290.31
681.39	289.80
681.73	289.30
682.06	288.80
682.40	288.33
682.74	287.92
683.08	287.55
683.42	287.10
683.75	286.69
684.09	286.20
684.43	285.79
684.77	285.36
685.10	284.99
685.44	284.57
685.78	284.15
686.12	283.76
686.45	283.36
686.79	282.92
687.13	282.52
687.46	282.08
687.80	281.67
688.14	281.22
688.48	280.84
688.81	280.43
689.15	280.08
689.49	279.67
689.82	279.24
690.16	278.76
690.50	278.37
690.83	277.97
691.17	277.57
691.51	277.16
691.84	276.78
692.18	276.35
692.52	275.92
692.85	275.50
693.19	275.13
693.52	274.73
693.86	274.33
694.20	273.95
694.53	273.59
694.87	273.18
695.21	272.79
695.54	272.40
695.88	272.01
696.21	271.59
696.55	271.23
696.88	270.85
697.22	270.49
697.56	270.11
697.89	269.70
698.23	269.32
698.56	268.93
698.90	268.56
699.23	268.16
699.57	267.79
699.90	267.42
700.24	267.03
700.58	266.69
700.91	266.37
701.25	266.13
701.58	265.84
701.92	265.54
702.25	265.22
702.59	264.88
702.92	264.54
703.26	264.20
703.59	263.84
703.93	263.60
704.26	263.28
704.60	262.94
704.93	262.61
705.26	262.28
705.60	261.99
705.93	261.64
706.27	261.37
706.60	261.10
706.94	260.82
707.27	260.48
707.61	260.16
707.94	259.82
708.27	259.37
708.61	258.99
708.94	258.65
709.28	258.34
709.61	258.03
709.94	257.75
710.28	257.48
710.61	257.23
710.95	256.85
711.28	256.64
711.61	256.36
711.95	256.11
712.28	255.83
712.61	255.54
712.95	255.35
713.28	255.15
713.61	254.84
713.95	254.55
714.28	254.31
714.61	254.03
714.95	253.78
715.28	253.54
715.61	253.30
715.95	253.07
716.28	252.84
716.61	252.64
716.95	252.38
717.28	252.14
717.61	251.89
717.94	251.65
718.28	251.32
718.61	251.09
718.94	250.84
719.27	250.62
719.61	250.42
719.94	250.16
720.27	249.86
720.60	249.64
720.94	249.43
721.27	249.23
721.60	249.04
721.93	248.82
722.27	248.65
722.60	248.45
722.93	248.24
723.26	248.03
723.59	247.80
723.93	247.60
724.26	247.40
724.59	247.20
724.92	247.03
725.25	246.89
725.59	246.69
725.92	246.54
726.25	246.36
726.58	246.18
726.91	245.99
727.24	245.84
727.57	245.67
727.91	245.48
728.24	245.32
728.57	245.13
728.90	244.99
729.23	244.78
729.56	244.67
729.89	244.50
730.22	244.33
730.55	244.17
730.89	244.01
731.22	243.84
731.55	243.69
731.88	243.53
732.21	243.36
732.54	243.20
732.87	243.05
733.20	242.91
733.53	242.75
733.86	242.61
734.19	242.43
734.52	242.31
734.85	242.25
735.18	242.07
735.51	241.97
735.84	241.83
736.17	241.73
736.50	241.54
736.83	241.54
737.16	241.41
737.49	241.29
737.82	241.16
738.15	241.04
738.48	240.91
738.81	240.77
739.14	240.62
739.47	240.49
739.80	240.34
740.13	240.21
740.46	240.06
740.79	239.92
741.12	239.78
741.45	239.62
741.78	239.42
742.11	239.33
742.44	239.18
742.77	239.06
743.10	238.92
743.43	238.78
743.75	238.53
744.08	238.61
744.41	238.48
744.74	238.35
745.07	238.20
745.40	238.12
745.73	238.06
746.06	237.96
746.39	237.87
746.71	237.76
747.04	237.65
747.37	237.55
747.70	237.48
748.03	237.40
748.36	237.32
748.68	237.22
749.01	237.08
749.34	236.99
749.67	236.89
750.00	236.82
750.33	236.82
750.65	236.72
750.98	236.44
751.31	236.35
751.64	236.27
751.97	236.24
752.29	236.14
752.62	235.98
752.95	235.89
753.28	235.77
753.60	235.68
753.93	235.61
754.26	235.53
754.59	235.40
754.91	235.30
755.24	235.21
755.57	235.18
755.90	235.10
756.22	235.00
756.55	234.89
756.88	234.77
757.20	234.62
757.53	234.51
757.86	234.44
758.19	234.36
758.51	234.29
758.84	234.16
759.17	234.07
759.49	234.01
759.82	234.00
760.15	233.94
760.47	233.88
760.80	233.78
761.13	233.73
761.45	233.66
761.78	233.60
762.11	233.53
762.43	233.40
762.76	233.34
763.08	233.30
763.41	233.24
763.74	233.18
764.06	233.12
764.39	233.05
764.71	232.99
765.04	232.93
765.37	232.85
765.69	232.79
766.02	232.73
766.34	232.66
766.67	232.56
767.00	232.53
767.32	232.53
767.65	232.56
767.97	232.49
768.30	232.44
768.62	232.39
768.95	232.32
769.27	232.25
769.60	232.21
769.92	232.14
770.25	232.08
770.57	232.01
770.90	231.95
771.22	231.89
771.55	231.84
771.87	231.81
772.20	231.76
772.52	231.81
772.85	231.91
773.17	231.88
773.50	231.83
773.82	231.76
774.15	231.66
774.47	231.54
774.80	231.49
775.12	231.45
775.45	231.41
775.77	231.39
776.09	231.36
776.42	231.31
776.74	231.31
777.07	231.28
777.39	231.25
777.72	231.21
778.04	231.20
778.36	231.16
778.69	231.12
779.01	231.10
779.33	230.97
779.66	230.80
779.98	230.75
780.31	230.72
780.63	230.75
780.95	230.74
781.28	230.70
781.60	230.67
781.92	230.65
782.25	230.61
782.57	230.59
782.89	230.56
783.22	230.53
783.54	230.47
783.86	230.45
784.19	230.42
784.51	230.44
784.83	230.40
785.16	230.37
785.48	230.34
785.80	230.30
786.12	230.28
786.45	230.26
786.77	230.25
787.09	230.21
787.42	230.14
787.74	230.13
788.06	230.11
788.38	230.08
788.71	230.04
789.03	230.03
789.35	230.02
789.67	229.98
789.99	229.97
790.32	229.93
790.64	229.92
790.96	230.02
791.28	229.94
791.61	229.91
791.93	229.91
792.25	229.89
792.57	229.97
792.89	229.92
793.21	229.91
793.54	229.87
793.86	229.84
794.18	229.82
794.50	229.78
794.82	229.76
795.14	229.76
795.47	229.76
795.79	229.74
796.11	229.69
796.43	229.67
796.75	229.65
797.07	229.65
797.39	229.61
797.71	229.49
798.04	229.48
798.36	229.47
798.68	229.44
799.00	229.42
799.32	229.34
799.64	229.35
799.96	229.33
800.28	229.34
800.60	229.33
800.92	229.33
801.24	229.31
801.56	229.29
801.89	229.26
802.21	229.25
802.53	229.21
802.85	229.23
803.17	229.29
803.49	229.25
803.81	229.23
804.13	229.20
804.45	229.17
804.77	229.18
805.09	229.16
805.41	229.14
805.73	229.11
806.05	229.06
806.37	229.04
806.69	229.01
807.01	228.99
807.33	228.98
807.65	228.92
807.97	228.96
808.28	228.93
808.60	228.92
808.92	228.89
809.24	228.96
809.56	228.92
809.88	228.86
810.20	228.87
810.52	228.88
810.84	228.85
811.16	228.84
811.48	228.82
811.80	228.85
812.12	228.84
812.43	228.85
812.75	228.85
813.07	228.83
813.39	228.83
813.71	228.81
814.03	228.79
814.35	228.79
814.67	228.74
814.98	228.72
815.30	228.71
815.62	228.69
815.94	228.60
816.26	228.61
816.58	228.57
816.89	228.57
817.21	228.52
817.53	228.53
817.85	228.53
818.17	228.52
818.48	228.46
818.80	228.48
819.12	228.45
819.44	228.43
819.76	228.39
820.07	228.38
820.39	228.38
820.71	228.37
821.03	228.37
821.34	228.35
821.66	228.36
821.98	228.37
822.30	228.35
822.61	228.42
822.93	228.37
823.25	228.36
823.57	228.34
823.88	228.36
824.20	228.34
824.52	228.34
824.83	228.33
825.15	228.32
825.47	228.30
825.79	228.30
826.10	228.29
826.42	228.29
826.74	228.30
827.05	228.29
827.37	228.29
827.69	228.28
828.00	228.27
828.32	228.26
828.64	228.23
828.95	228.30
829.27	228.26
829.58	228.27
829.90	228.29
830.22	228.29
830.53	228.25
830.85	228.23
831.17	228.21
831.48	228.21
831.80	228.21
832.11	228.19
832.43	228.18
832.75	228.17
833.06	228.23
833.38	228.18
833.69	228.17
834.01	228.18
834.32	228.16
834.64	228.15
834.96	228.15
835.27	228.14
835.59	228.09
835.90	228.07
836.22	228.05
836.53	228.01
836.85	228.00
837.16	228.13
837.48	228.13
837.79	228.17
838.11	228.17
838.42	228.15
838.74	228.17
839.05	228.15
839.37	228.14
839.68	228.06
840.00	228.06
840.31	228.08
840.63	228.06
840.94	228.05
841.26	228.03
841.57	228.03
841.88	228.04
842.20	228.01
842.51	228.00
842.83	228.00
843.14	228.12
843.46	228.10
843.77	228.02
844.08	228.01
844.40	227.97
844.71	227.94
845.03	227.93
845.34	227.90
845.65	227.90
845.97	227.90
846.28	227.91
846.60	227.91
846.91	227.88
847.22	227.87
847.54	227.90
847.85	227.91
848.16	227.88
848.48	227.86
848.79	227.91
849.10	227.92
849.42	227.93
849.73	227.80
850.04	227.80
850.36	227.75
850.67	227.78
850.98	227.78
851.30	227.79
851.61	227.79
851.92	227.80
852.23	227.83
852.55	227.85
852.86	227.85
853.17	227.86
853.49	227.90
853.80	227.91
854.11	227.91
854.42	227.92
854.74	227.91
855.05	227.92
855.36	227.85
855.67	227.85
855.99	227.85
856.30	227.99
856.61	227.99
856.92	228.00
857.23	227.99
857.55	227.98
857.86	227.96
858.17	227.97
858.48	227.94
858.79	227.91
859.11	227.91
859.42	227.90
859.73	227.88
860.04	227.87
860.35	227.84
860.66	227.79
860.98	227.79
861.29	227.80
861.60	227.79
861.91	227.82
862.22	227.79
862.53	227.77
862.84	227.62
863.16	227.64
863.47	227.62
863.78	227.61
864.09	227.62
864.40	227.62
864.71	227.63
865.02	227.64
865.33	227.62
865.64	227.61
865.95	227.60
866.27	227.67
866.58	227.66
866.89	227.68
867.20	227.67
867.51	227.65
867.82	227.65
868.13	227.68
868.44	227.65
868.75	227.67
869.06	227.68
869.37	227.69
869.68	227.66
869.99	227.68
870.30	227.68
870.61	227.70
870.92	227.68
871.23	227.66
871.54	227.67
871.85	227.70
872.16	227.71
872.47	227.70
872.78	227.63
873.09	227.64
873.40	227.62
873.71	227.63
874.02	227.63
874.33	227.62
874.64	227.59
874.95	227.61
875.26	227.58
875.56	227.57
875.87	227.56
876.18	227.55
876.49	227.67
876.80	227.65
877.11	227.63
877.42	227.63
877.73	227.63
878.04	227.61
878.35	227.60
878.66	227.61
878.96	227.62
879.27	227.61
879.58	227.61
879.89	227.60
880.20	227.64
880.51	227.63
880.82	227.64
881.12	227.65
881.43	227.62
881.74	227.60
882.05	227.60
882.36	227.61
882.67	227.63
882.97	227.49
883.28	227.48
883.59	227.48
883.90	227.50
884.21	227.53
884.51	227.52
884.82	227.50
885.13	227.48
885.44	227.47
885.74	227.48
886.05	227.46
886.36	227.47
886.67	227.42
886.98	227.48
887.28	227.49
887.59	227.49
887.90	227.50
888.20	227.50
888.51	227.52
888.82	227.50
889.13	227.51
889.43	227.62
889.74	227.61
890.05	227.61
890.35	227.60
890.66	227.57
890.97	227.56
891.28	227.54
891.58	227.54
891.89	227.55
892.20	227.54
892.50	227.53
892.81	227.51
893.12	227.52
893.42	227.46
893.73	227.46
894.04	227.46
894.34	227.47
894.65	227.48
894.95	227.47
895.26	227.48
895.57	227.53
895.87	227.40
896.18	227.43
896.48	227.43
896.79	227.42
897.10	227.43
897.40	227.45
897.71	227.46
898.01	227.46
898.32	227.47
898.63	227.46
898.93	227.47
899.24	227.48
899.54	227.47
899.85	227.45
900.15	227.45
900.46	227.44
900.76	227.44
901.07	227.44
901.38	227.43
901.68	227.45
901.99	227.38
902.29	227.39
902.60	227.37
902.90	227.36
903.21	227.37
903.51	227.35
903.82	227.37
904.12	227.37
904.43	227.37
904.73	227.36
905.03	227.38
905.34	227.48
905.64	227.48
905.95	227.48
906.25	227.48
906.56	227.49
906.86	227.49
907.17	227.48
907.47	227.49
907.77	227.47
908.08	227.44
908.38	227.45
908.69	227.46
908.99	227.49
909.30	227.49
909.60	227.49
909.90	227.50
910.21	227.46
910.51	227.45
910.81	227.46
911.12	227.46
911.42	227.46
911.73	227.34
912.03	227.35
912.33	227.37
912.64	227.35
912.94	227.34
913.24	227.32
913.55	227.30
913.85	227.29
914.15	227.32
914.46	227.33
914.76	227.32
915.06	227.31
915.37	227.28
915.67	227.28
915.97	227.27
916.27	227.24
916.58	227.25
916.88	227.25
917.18	227.24
917.49	227.32
917.79	227.32
918.09	227.34
918.39	227.37
918.70	227.36
919.00	227.38
919.30	227.44
919.60	227.44
919.91	227.43
920.21	227.44
920.51	227.42
920.81	227.42
921.12	227.45
921.42	227.45
921.72	227.46
922.02	227.46
922.32	227.48
922.63	227.49
922.93	227.56
923.23	227.55
923.53	227.54
923.83	227.46
924.13	227.47
924.44	227.47
924.74	227.48
925.04	227.51
925.34	227.50
925.64	227.45
925.94	227.46
926.24	227.54
926.55	227.53
926.85	227.54
927.15	227.54
927.45	227.53
927.75	227.54
928.05	227.53
928.35	227.53
928.65	227.55
928.95	227.55
929.26	227.49
929.56	227.52
929.86	227.53
930.16	227.52
930.46	227.50
930.76	227.51
931.06	227.45
931.36	227.41
931.66	227.43
931.96	227.44
932.26	227.44
932.56	227.38
932.86	227.38
933.16	227.37
933.46	227.36
933.76	227.34
934.06	227.36
934.36	227.40
934.66	227.39
934.96	227.37
935.26	227.37
935.56	227.39
935.86	227.36
936.16	227.34
936.46	227.33
936.76	227.33
937.06	227.30
937.36	227.32
937.66	227.32
937.96	227.31
938.26	227.28
938.56	227.27
938.86	227.27
939.16	227.30
939.46	227.32
939.76	227.32
940.06	227.32
940.35	227.30
940.65	227.23
940.95	227.24
941.25	227.20
941.55	227.19
941.85	227.18
942.15	227.22
942.45	227.25
942.75	227.26
943.04	227.26
943.34	227.29
943.64	227.27
943.94	227.25
944.24	227.25
944.54	227.25
944.84	227.26
945.13	227.24
945.43	227.21
945.73	227.20
946.03	227.19
946.33	227.18
946.62	227.18
946.92	227.18
947.22	227.19
947.52	227.21
947.82	227.22
948.11	227.21
948.41	227.17
948.71	227.13
949.01	227.13
949.31	227.13
949.60	227.11
949.90	227.13
950.20	227.12
950.50	227.12
950.79	227.12
951.09	227.13
951.39	227.12
951.69	227.11
951.98	227.14
952.28	227.15
952.58	227.15
952.87	227.15
953.17	227.17
953.47	227.16
953.76	227.16
954.06	227.12
954.36	227.12
954.66	227.12
954.95	227.16
955.25	227.17
955.55	227.18
955.84	227.16
956.14	227.18
956.44	227.20
956.73	227.18
957.03	227.19
957.32	227.19
957.62	227.19
957.92	227.23
958.21	227.21
958.51	227.34
958.81	227.35
959.10	227.37
959.40	227.40
959.69	227.40
959.99	227.42
960.29	227.43
960.58	227.43
960.88	227.48
961.17	227.45
961.47	227.46
961.76	227.45
962.06	227.48
962.36	227.46
962.65	227.46
962.95	227.47
963.24	227.45
963.54	227.46
963.83	227.46
964.13	227.45
964.42	227.43
964.72	227.33
965.01	227.33
965.31	227.32
965.60	227.30
965.90	227.37
966.19	227.34
966.49	227.34
966.78	227.34
967.08	227.33
967.37	227.34
967.67	227.32
967.96	227.34
968.26	227.33
968.55	227.34
968.85	227.34
969.14	227.34
969.43	227.34
969.73	227.33
970.02	227.31
970.32	227.30
970.61	227.28
970.91	227.25
971.20	227.23
971.49	227.21
971.79	227.22
972.08	227.13
972.38	227.14
972.67	227.14
972.96	227.16
973.26	227.13
973.55	227.15
973.85	227.14
974.14	227.13
974.43	227.14
974.73	227.12
975.02	227.11
975.31	227.12
975.61	227.11
975.90	227.10
976.19	227.09
976.49	227.10
976.78	227.11
977.07	227.13
977.37	227.15
977.66	227.17
977.95	227.14
978.24	227.16
978.54	227.18
978.83	227.17
979.12	227.17
979.42	227.17
979.71	227.16
980.00	227.16
980.29	227.17
980.59	227.14
980.88	227.17
981.17	227.17
981.46	227.18
981.76	227.18
982.05	227.23
982.34	227.24
982.63	227.25
982.93	227.24
983.22	227.26
983.51	227.26
983.80	227.27
984.09	227.29
984.39	227.28
984.68	227.27
984.97	227.28
985.26	227.26
985.55	227.28
985.85	227.25
986.14	227.27
986.43	227.28
986.72	227.29
987.01	227.25
987.30	227.25
987.59	227.25
987.89	227.25
988.18	227.20
988.47	227.19
988.76	227.18
989.05	227.17
989.34	227.15
989.63	227.19
989.92	227.17
990.22	227.14
990.51	227.14
990.80	227.13
991.09	227.14
991.38	227.15
991.67	227.12
991.96	227.12
992.25	227.12
992.54	227.10
992.83	227.10
993.12	227.08
993.41	227.10
993.70	227.13
993.99	227.15
994.28	227.17
994.58	227.19
994.87	227.18
995.16	227.18
995.45	227.17
995.74	227.12
996.03	227.13
996.32	227.15
996.61	227.18
996.90	227.17
997.19	227.17
997.48	227.17
997.77	227.15
998.06	227.16
998.34	227.15
998.63	227.14
998.92	227.14
999.21	227.17
999.50	227.17
999.79	227.14
1000.08	227.13
1000.37	227.13
1000.66	227.11
1000.95	227.14
1001.24	227.15
1001.53	227.16
1001.82	227.16
1002.11	227.13
1002.40	227.14
1002.68	227.15
1002.97	227.24
1003.26	227.21
1003.55	227.20
1003.84	227.20
1004.13	227.24
1004.42	227.23
1004.71	227.22
1004.99	227.21
1005.28	227.23
1005.57	227.22
1005.86	227.21
1006.15	227.20
1006.44	227.19
1006.72	227.20
1007.01	227.18
1007.30	227.17
1007.59	227.16
1007.88	227.16
1008.17	227.17
1008.45	227.15
1008.74	227.11
1009.03	227.06
1009.32	227.07
1009.60	227.07
1009.89	227.07
1010.18	227.02
1010.47	227.02
1010.76	227.02
1011.04	227.03
1011.33	227.02
1011.62	227.02
1011.91	227.03
1012.19	227.03
1012.48	227.03
1012.77	227.02
1013.05	227.07
1013.34	227.06
1013.63	227.06
1013.92	227.06
1014.20	227.07
1014.49	227.07
1014.78	227.08
1015.06	227.04
1015.35	227.03
1015.64	227.06
1015.92	227.08
1016.21	227.09
1016.50	227.10
1016.78	227.11
1017.07	227.12
1017.36	227.10
1017.64	227.09
1017.93	227.10
1018.22	227.08
1018.50	227.09
1018.79	227.09
1019.08	227.04
1019.36	227.06
1019.65	227.04
1019.93	227.07
1020.22	227.07
1020.51	227.14
1020.79	227.12
1021.08	226.80
1021.36	227.05
1021.65	227.05
1021.94	226.92
1022.22	227.19
1022.51	226.67
1022.79	227.59
1023.08	227.04
1023.36	228.52
1023.65	226.62
>>>>>End Processed Spectral Data<<<<<
