SpectraSuite Data File
++++++++++++++++++++++++++++++++++++
Date: Fri Oct 02 17:33:58 EDT 2015
User: lab3
Dark Spectrum Present: No
Reference Spectrum Present: No
Number of Sampled Component Spectra: 1
Spectrometers: USB2E7196
Integration Time (usec): 46000 (USB2E7196)
Spectra Averaged: 1500 (USB2E7196)
Boxcar Smoothing: 10 (USB2E7196)
Correct for Electrical Dark: No (USB2E7196)
Strobe/Lamp Enabled: No (USB2E7196)
Correct for Detector Non-linearity: No (USB2E7196)
Correct for Stray Light: No (USB2E7196)
Number of Pixels in Processed Spectrum: 2048
>>>>>Begin Processed Spectral Data<<<<<
339.09	0.00
339.48	215.15
339.86	216.52
340.24	218.14
340.63	219.45
341.01	222.72
341.39	222.32
341.78	223.54
342.16	224.74
342.54	225.28
342.93	213.56
343.31	224.34
343.69	224.88
344.07	225.35
344.46	225.77
344.84	226.16
345.22	226.37
345.60	226.62
345.99	226.82
346.37	226.96
346.75	227.06
347.13	227.14
347.52	227.21
347.90	227.30
348.28	227.34
348.66	227.40
349.05	227.39
349.43	227.46
349.81	227.51
350.19	227.58
350.57	227.65
350.96	227.73
351.34	227.82
351.72	227.92
352.10	228.02
352.48	228.11
352.87	228.16
353.25	228.23
353.63	228.29
354.01	228.36
354.39	228.44
354.77	228.51
355.15	228.63
355.54	228.67
355.92	228.71
356.30	228.79
356.68	228.93
357.06	229.01
357.44	229.06
357.82	229.13
358.20	229.25
358.58	229.30
358.97	229.37
359.35	229.46
359.73	229.54
360.11	229.59
360.49	229.64
360.87	229.70
361.25	229.76
361.63	229.86
362.01	229.92
362.39	229.94
362.77	229.99
363.15	230.01
363.53	230.05
363.91	230.08
364.29	230.10
364.67	230.01
365.05	230.03
365.43	230.07
365.81	230.10
366.19	230.11
366.57	230.17
366.95	230.16
367.33	230.13
367.71	230.12
368.09	230.14
368.47	230.13
368.85	230.12
369.23	230.13
369.61	230.06
369.99	230.08
370.37	230.08
370.75	230.15
371.13	230.12
371.51	230.08
371.89	230.07
372.27	230.05
372.65	230.03
373.03	229.99
373.41	229.95
373.78	229.90
374.16	229.80
374.54	229.71
374.92	229.67
375.30	229.63
375.68	229.57
376.06	229.53
376.44	229.47
376.82	229.43
377.19	229.38
377.57	229.34
377.95	229.24
378.33	229.17
378.71	229.01
379.09	228.96
379.47	228.94
379.84	228.88
380.22	228.82
380.60	228.74
380.98	228.68
381.36	228.63
381.73	228.57
382.11	228.54
382.49	228.50
382.87	228.44
383.25	228.39
383.62	228.49
384.00	228.41
384.38	228.39
384.76	228.37
385.13	228.37
385.51	228.33
385.89	228.28
386.27	228.24
386.64	228.22
387.02	228.17
387.40	228.12
387.78	228.08
388.15	228.06
388.53	228.03
388.91	228.00
389.29	227.95
389.66	227.95
390.04	227.91
390.42	227.90
390.79	227.89
391.17	227.87
391.55	227.71
391.92	227.70
392.30	227.70
392.68	227.66
393.05	227.63
393.43	227.62
393.81	227.63
394.18	227.62
394.56	227.63
394.94	227.67
395.31	227.66
395.69	227.70
396.06	227.72
396.44	227.75
396.82	227.76
397.19	227.85
397.57	227.86
397.95	227.91
398.32	227.90
398.70	227.94
399.07	228.01
399.45	228.04
399.82	228.08
400.20	228.11
400.58	228.17
400.95	228.18
401.33	228.26
401.70	228.41
402.08	228.51
402.45	228.59
402.83	228.69
403.20	228.80
403.58	228.89
403.95	229.03
404.33	229.18
404.71	229.31
405.08	229.51
405.46	229.67
405.83	229.84
406.21	230.04
406.58	230.25
406.96	230.45
407.33	230.71
407.70	230.98
408.08	231.35
408.45	231.68
408.83	232.03
409.20	232.35
409.58	232.64
409.95	233.03
410.33	233.45
410.70	233.86
411.08	234.33
411.45	234.83
411.82	235.34
412.20	235.92
412.57	236.62
412.95	237.16
413.32	237.87
413.69	238.59
414.07	239.37
414.44	240.21
414.82	241.06
415.19	242.06
415.56	243.07
415.94	244.12
416.31	245.30
416.68	246.50
417.06	247.87
417.43	249.15
417.81	250.63
418.18	252.14
418.55	253.79
418.93	255.51
419.30	257.31
419.67	259.20
420.04	261.15
420.42	263.19
420.79	265.55
421.16	267.93
421.54	270.35
421.91	272.87
422.28	275.48
422.66	278.31
423.03	281.01
423.40	283.85
423.77	286.89
424.15	289.99
424.52	293.22
424.89	296.73
425.26	300.22
425.64	303.47
426.01	307.11
426.38	310.84
426.75	314.69
427.13	318.62
427.50	322.76
427.87	327.05
428.24	331.39
428.61	335.56
428.99	340.08
429.36	345.03
429.73	349.76
430.10	354.52
430.47	359.38
430.85	364.37
431.22	369.74
431.59	375.26
431.96	380.65
432.33	386.64
432.70	392.35
433.08	399.10
433.45	405.47
433.82	411.75
434.19	418.78
434.56	425.70
434.93	432.40
435.30	439.01
435.68	446.49
436.05	453.82
436.42	461.11
436.79	467.77
437.16	474.96
437.53	482.66
437.90	490.35
438.27	497.87
438.64	506.00
439.01	513.35
439.38	520.09
439.75	526.57
440.13	533.85
440.50	540.78
440.87	546.23
441.24	552.22
441.61	558.77
441.98	563.51
442.35	569.13
442.72	574.85
443.09	580.28
443.46	583.66
443.83	586.12
444.20	588.11
444.57	591.14
444.94	592.77
445.31	594.45
445.68	595.83
446.05	596.77
446.42	596.16
446.79	595.37
447.16	594.63
447.53	593.92
447.90	591.33
448.27	588.85
448.64	585.22
449.01	582.59
449.37	577.66
449.74	573.18
450.11	567.46
450.48	561.26
450.85	555.06
451.22	549.74
451.59	544.54
451.96	539.85
452.33	533.14
452.70	527.17
453.07	519.93
453.43	512.73
453.80	505.75
454.17	499.10
454.54	492.97
454.91	486.07
455.28	479.65
455.65	473.57
456.02	467.16
456.38	462.03
456.75	455.44
457.12	450.11
457.49	444.77
457.86	439.74
458.23	435.35
458.59	430.47
458.96	425.51
459.33	421.15
459.70	416.71
460.07	413.36
460.43	409.40
460.80	405.72
461.17	402.53
461.54	399.05
461.91	395.82
462.27	392.52
462.64	389.88
463.01	386.79
463.38	383.71
463.74	380.93
464.11	378.49
464.48	376.28
464.85	373.89
465.21	372.08
465.58	370.06
465.95	367.74
466.32	365.92
466.68	364.10
467.05	362.28
467.42	360.49
467.78	358.56
468.15	356.78
468.52	355.51
468.88	353.77
469.25	352.20
469.62	350.95
469.98	349.59
470.35	348.37
470.72	347.27
471.08	346.14
471.45	345.19
471.82	344.13
472.18	343.02
472.55	342.30
472.92	341.38
473.28	340.66
473.65	339.90
474.02	339.18
474.38	338.57
474.75	338.21
475.11	337.71
475.48	337.49
475.85	337.25
476.21	337.12
476.58	337.03
476.94	337.18
477.31	337.24
477.67	337.32
478.04	337.53
478.41	337.82
478.77	338.25
479.14	338.51
479.50	339.01
479.87	339.67
480.23	340.34
480.60	341.00
480.96	341.65
481.33	342.61
481.69	343.56
482.06	344.51
482.42	345.40
482.79	346.49
483.15	347.74
483.52	349.17
483.88	350.55
484.25	352.03
484.61	353.55
484.98	355.22
485.34	357.08
485.71	359.03
486.07	361.11
486.44	363.19
486.80	365.51
487.17	367.94
487.53	370.57
487.90	373.32
488.26	376.32
488.62	379.50
488.99	382.67
489.35	386.01
489.72	389.64
490.08	393.45
490.44	397.40
490.81	401.48
491.17	405.69
491.54	410.21
491.90	414.87
492.26	419.88
492.63	425.08
492.99	430.54
493.36	436.19
493.72	442.15
494.08	448.24
494.45	454.70
494.81	461.41
495.17	468.30
495.54	475.57
495.90	483.15
496.26	490.90
496.63	498.89
496.99	507.19
497.35	515.89
497.72	524.87
498.08	534.07
498.44	543.57
498.80	553.63
499.17	563.94
499.53	574.55
499.89	585.54
500.26	596.78
500.62	608.30
500.98	620.41
501.34	632.72
501.71	645.52
502.07	658.55
502.43	672.09
502.79	685.84
503.16	700.05
503.52	714.45
503.88	729.28
504.24	744.56
504.60	760.03
504.97	775.97
505.33	792.34
505.69	809.58
506.05	827.17
506.41	844.68
506.78	862.37
507.14	880.61
507.50	899.28
507.86	918.29
508.22	937.50
508.59	956.58
508.95	976.46
509.31	997.06
509.67	1018.32
510.03	1039.58
510.39	1060.93
510.75	1082.50
511.12	1104.29
511.48	1126.24
511.84	1148.25
512.20	1170.73
512.56	1194.02
512.92	1217.31
513.28	1240.26
513.64	1263.47
514.00	1287.08
514.37	1311.01
514.73	1334.93
515.09	1358.75
515.45	1382.92
515.81	1407.21
516.17	1431.69
516.53	1455.63
516.89	1479.49
517.25	1503.51
517.61	1527.44
517.97	1551.85
518.33	1575.73
518.69	1599.59
519.05	1623.98
519.41	1648.63
519.77	1673.38
520.13	1697.49
520.49	1721.54
520.85	1745.89
521.21	1769.76
521.57	1794.04
521.93	1817.85
522.29	1842.14
522.65	1865.95
523.01	1889.66
523.37	1913.05
523.73	1937.11
524.09	1960.94
524.45	1984.56
524.81	2007.79
525.17	2030.87
525.53	2053.32
525.89	2076.24
526.25	2099.14
526.61	2120.99
526.97	2143.00
527.33	2165.02
527.68	2186.68
528.04	2207.59
528.40	2227.62
528.76	2247.98
529.12	2267.82
529.48	2287.25
529.84	2304.98
530.20	2323.28
530.56	2341.04
530.91	2358.92
531.27	2376.46
531.63	2393.19
531.99	2409.50
532.35	2425.16
532.71	2440.89
533.07	2457.29
533.42	2471.92
533.78	2487.49
534.14	2503.32
534.50	2518.13
534.86	2532.73
535.21	2545.46
535.57	2558.67
535.93	2571.62
536.29	2583.42
536.65	2595.11
537.00	2606.17
537.36	2618.07
537.72	2628.50
538.08	2638.51
538.44	2647.86
538.79	2656.83
539.15	2664.95
539.51	2672.67
539.87	2679.74
540.22	2684.97
540.58	2690.27
540.94	2696.72
541.29	2701.65
541.65	2704.81
542.01	2707.34
542.37	2709.17
542.72	2712.35
543.08	2713.83
543.44	2715.90
543.79	2716.93
544.15	2717.15
544.51	2717.75
544.87	2717.30
545.22	2716.10
545.58	2714.22
545.94	2712.37
546.29	2709.17
546.65	2706.01
547.01	2702.79
547.36	2700.28
547.72	2697.84
548.07	2693.67
548.43	2688.07
548.79	2681.60
549.14	2676.35
549.50	2671.36
549.86	2665.44
550.21	2658.34
550.57	2652.22
550.92	2643.82
551.28	2635.99
551.64	2628.46
551.99	2620.52
552.35	2611.86
552.70	2603.55
553.06	2595.50
553.41	2586.84
553.77	2578.01
554.13	2569.09
554.48	2559.32
554.84	2548.38
555.19	2537.93
555.55	2527.55
555.90	2517.21
556.26	2507.33
556.61	2496.41
556.97	2483.81
557.32	2471.73
557.68	2459.69
558.03	2447.42
558.39	2436.30
558.74	2425.50
559.10	2412.95
559.45	2400.66
559.81	2389.00
560.16	2376.65
560.52	2364.55
560.87	2352.76
561.23	2340.12
561.58	2327.68
561.94	2314.88
562.29	2301.54
562.64	2288.93
563.00	2275.96
563.35	2263.42
563.71	2250.66
564.06	2237.79
564.42	2225.67
564.77	2212.98
565.12	2200.14
565.48	2187.26
565.83	2174.38
566.19	2161.57
566.54	2148.79
566.89	2134.81
567.25	2121.02
567.60	2108.53
567.96	2095.24
568.31	2080.59
568.66	2066.72
569.02	2053.88
569.37	2041.00
569.72	2028.66
570.08	2015.01
570.43	2001.07
570.78	1986.93
571.14	1972.18
571.49	1958.09
571.84	1944.56
572.20	1929.78
572.55	1915.29
572.90	1900.66
573.26	1886.07
573.61	1870.93
573.96	1856.25
574.31	1841.85
574.67	1827.50
575.02	1812.17
575.37	1796.84
575.72	1782.43
576.08	1768.30
576.43	1753.05
576.78	1738.25
577.13	1723.67
577.49	1709.42
577.84	1695.80
578.19	1681.22
578.54	1666.84
578.90	1651.96
579.25	1636.96
579.60	1623.59
579.95	1610.04
580.30	1596.31
580.66	1582.35
581.01	1568.36
581.36	1554.32
581.71	1541.32
582.06	1528.12
582.42	1515.23
582.77	1502.36
583.12	1489.42
583.47	1476.37
583.82	1463.39
584.17	1450.08
584.53	1436.48
584.88	1423.30
585.23	1409.68
585.58	1396.90
585.93	1384.27
586.28	1372.41
586.63	1360.55
586.98	1348.19
587.34	1335.91
587.69	1323.37
588.04	1311.15
588.39	1299.30
588.74	1287.61
589.09	1275.66
589.44	1263.33
589.79	1251.64
590.14	1240.04
590.49	1228.38
590.84	1216.87
591.19	1205.78
591.54	1194.50
591.89	1183.35
592.25	1172.33
592.60	1161.01
592.95	1150.06
593.30	1139.34
593.65	1128.31
594.00	1117.38
594.35	1107.03
594.70	1096.28
595.05	1086.42
595.40	1076.41
595.75	1066.26
596.10	1056.65
596.45	1046.72
596.80	1037.15
597.15	1027.32
597.50	1017.66
597.85	1008.42
598.19	999.00
598.54	989.64
598.89	980.72
599.24	972.13
599.59	963.39
599.94	955.52
600.29	947.46
600.64	939.09
600.99	930.39
601.34	922.06
601.69	913.38
602.04	905.38
602.39	897.21
602.74	889.08
603.08	880.93
603.43	872.74
603.78	864.76
604.13	856.93
604.48	849.09
604.83	841.41
605.18	833.66
605.53	826.08
605.87	818.29
606.22	810.85
606.57	803.32
606.92	795.68
607.27	787.98
607.62	780.61
607.96	773.66
608.31	767.11
608.66	760.37
609.01	753.92
609.36	747.56
609.70	740.96
610.05	734.39
610.40	728.05
610.75	721.72
611.10	715.69
611.44	709.51
611.79	703.43
612.14	697.30
612.49	691.24
612.83	685.47
613.18	679.85
613.53	674.11
613.88	668.40
614.22	663.13
614.57	657.77
614.92	652.26
615.27	646.88
615.61	641.54
615.96	636.27
616.31	631.00
616.65	625.77
617.00	620.79
617.35	615.89
617.70	611.05
618.04	606.23
618.39	601.34
618.74	596.71
619.08	592.13
619.43	587.66
619.78	583.21
620.12	578.70
620.47	574.35
620.82	570.12
621.16	565.92
621.51	561.57
621.85	557.29
622.20	553.22
622.55	549.11
622.89	545.09
623.24	541.07
623.59	537.11
623.93	533.32
624.28	529.61
624.62	525.98
624.97	522.40
625.32	518.81
625.66	515.16
626.01	511.47
626.35	507.85
626.70	504.28
627.04	500.87
627.39	497.42
627.73	494.13
628.08	490.93
628.43	487.73
628.77	484.62
629.12	481.62
629.46	478.60
629.81	475.52
630.15	472.43
630.50	469.44
630.84	466.50
631.19	463.60
631.53	460.82
631.88	458.01
632.22	455.21
632.57	452.68
632.91	450.22
633.26	447.82
633.60	445.44
633.95	443.13
634.29	440.73
634.64	438.40
634.98	435.87
635.32	433.48
635.67	431.27
636.01	429.01
636.36	426.78
636.70	424.70
637.05	422.62
637.39	420.57
637.73	418.54
638.08	416.63
638.42	414.68
638.77	412.60
639.11	410.46
639.45	408.43
639.80	406.32
640.14	404.31
640.49	402.31
640.83	400.26
641.17	398.30
641.52	396.39
641.86	394.50
642.20	392.82
642.55	390.96
642.89	389.15
643.23	387.42
643.58	385.86
643.92	384.15
644.26	382.51
644.61	380.92
644.95	379.30
645.29	377.61
645.64	375.94
645.98	374.35
646.32	372.88
646.66	371.40
647.01	369.93
647.35	368.52
647.69	367.07
648.04	365.77
648.38	364.37
648.72	363.00
649.06	361.62
649.41	360.27
649.75	358.96
650.09	357.67
650.43	356.37
650.78	355.02
651.12	353.72
651.46	352.45
651.80	351.23
652.14	350.02
652.49	348.86
652.83	347.67
653.17	346.54
653.51	345.44
653.85	344.40
654.20	343.29
654.54	342.11
654.88	341.02
655.22	339.96
655.56	338.89
655.90	337.88
656.25	336.89
656.59	335.89
656.93	334.96
657.27	334.03
657.61	333.03
657.95	332.08
658.29	331.13
658.64	330.23
658.98	329.32
659.32	328.44
659.66	327.60
660.00	326.77
660.34	325.95
660.68	325.07
661.02	324.16
661.36	323.29
661.70	322.47
662.05	321.66
662.39	320.85
662.73	320.12
663.07	319.40
663.41	318.64
663.75	317.87
664.09	317.10
664.43	316.30
664.77	315.59
665.11	314.82
665.45	314.12
665.79	313.43
666.13	312.70
666.47	311.93
666.81	311.18
667.15	310.38
667.49	309.69
667.83	309.07
668.17	308.43
668.51	307.83
668.85	307.26
669.19	306.69
669.53	306.04
669.87	305.38
670.21	304.75
670.55	304.14
670.89	303.62
671.23	303.04
671.57	302.47
671.91	301.95
672.25	301.45
672.58	300.95
672.92	300.36
673.26	299.87
673.60	299.38
673.94	298.90
674.28	298.47
674.62	297.99
674.96	297.44
675.30	296.95
675.64	296.42
675.97	295.88
676.31	295.32
676.65	294.82
676.99	294.38
677.33	293.85
677.67	293.37
678.01	292.81
678.34	292.34
678.68	291.90
679.02	291.38
679.36	290.88
679.70	290.37
680.04	289.92
680.37	289.44
680.71	288.99
681.05	288.56
681.39	288.07
681.73	287.57
682.06	287.09
682.40	286.63
682.74	286.22
683.08	285.86
683.42	285.45
683.75	285.06
684.09	284.57
684.43	284.16
684.77	283.73
685.10	283.35
685.44	282.95
685.78	282.54
686.12	282.16
686.45	281.77
686.79	281.35
687.13	280.97
687.46	280.54
687.80	280.15
688.14	279.69
688.48	279.29
688.81	278.90
689.15	278.54
689.49	278.14
689.82	277.72
690.16	277.25
690.50	276.85
690.83	276.44
691.17	276.04
691.51	275.65
691.84	275.29
692.18	274.88
692.52	274.46
692.85	274.05
693.19	273.69
693.52	273.30
693.86	272.92
694.20	272.54
694.53	272.18
694.87	271.78
695.21	271.40
695.54	271.02
695.88	270.64
696.21	270.23
696.55	269.87
696.88	269.51
697.22	269.15
697.56	268.77
697.89	268.37
698.23	268.01
698.56	267.62
698.90	267.26
699.23	266.87
699.57	266.50
699.90	266.14
700.24	265.75
700.58	265.42
700.91	265.11
701.25	264.87
701.58	264.58
701.92	264.28
702.25	263.96
702.59	263.63
702.92	263.30
703.26	262.96
703.59	262.62
703.93	262.38
704.26	262.07
704.60	261.74
704.93	261.42
705.26	261.09
705.60	260.82
705.93	260.47
706.27	260.20
706.60	259.94
706.94	259.68
707.27	259.34
707.61	259.02
707.94	258.68
708.27	258.25
708.61	257.89
708.94	257.57
709.28	257.27
709.61	256.96
709.94	256.69
710.28	256.43
710.61	256.19
710.95	255.81
711.28	255.61
711.61	255.34
711.95	255.10
712.28	254.82
712.61	254.54
712.95	254.35
713.28	254.15
713.61	253.84
713.95	253.54
714.28	253.31
714.61	253.05
714.95	252.81
715.28	252.57
715.61	252.35
715.95	252.13
716.28	251.91
716.61	251.70
716.95	251.46
717.28	251.22
717.61	250.98
717.94	250.76
718.28	250.45
718.61	250.23
718.94	249.98
719.27	249.76
719.61	249.56
719.94	249.32
720.27	249.03
720.60	248.83
720.94	248.62
721.27	248.41
721.60	248.23
721.93	248.03
722.27	247.84
722.60	247.65
722.93	247.43
723.26	247.22
723.59	246.99
723.93	246.81
724.26	246.63
724.59	246.42
724.92	246.25
725.25	246.11
725.59	245.92
725.92	245.78
726.25	245.61
726.58	245.44
726.91	245.24
727.24	245.09
727.57	244.92
727.91	244.74
728.24	244.59
728.57	244.41
728.90	244.25
729.23	244.05
729.56	243.93
729.89	243.76
730.22	243.59
730.55	243.44
730.89	243.28
731.22	243.11
731.55	242.95
731.88	242.79
732.21	242.61
732.54	242.45
732.87	242.30
733.20	242.15
733.53	242.00
733.86	241.86
734.19	241.69
734.52	241.57
734.85	241.51
735.18	241.33
735.51	241.23
735.84	241.10
736.17	241.00
736.50	240.81
736.83	240.82
737.16	240.70
737.49	240.59
737.82	240.46
738.15	240.35
738.48	240.23
738.81	240.10
739.14	239.97
739.47	239.84
739.80	239.71
740.13	239.58
740.46	239.45
740.79	239.31
741.12	239.19
741.45	239.05
741.78	238.86
742.11	238.78
742.44	238.63
742.77	238.53
743.10	238.40
743.43	238.27
743.75	238.03
744.08	238.10
744.41	237.98
744.74	237.86
745.07	237.73
745.40	237.64
745.73	237.58
746.06	237.48
746.39	237.39
746.71	237.29
747.04	237.18
747.37	237.08
747.70	237.01
748.03	236.92
748.36	236.85
748.68	236.75
749.01	236.62
749.34	236.53
749.67	236.44
750.00	236.36
750.33	236.38
750.65	236.29
750.98	236.01
751.31	235.92
751.64	235.83
751.97	235.81
752.29	235.72
752.62	235.57
752.95	235.47
753.28	235.38
753.60	235.29
753.93	235.24
754.26	235.17
754.59	235.04
754.91	234.94
755.24	234.84
755.57	234.81
755.90	234.73
756.22	234.62
756.55	234.52
756.88	234.41
757.20	234.24
757.53	234.12
757.86	234.04
758.19	233.97
758.51	233.89
758.84	233.75
759.17	233.67
759.49	233.60
759.82	233.59
760.15	233.53
760.47	233.45
760.80	233.34
761.13	233.29
761.45	233.22
761.78	233.16
762.11	233.09
762.43	232.96
762.76	232.90
763.08	232.85
763.41	232.81
763.74	232.76
764.06	232.70
764.39	232.65
764.71	232.59
765.04	232.52
765.37	232.46
765.69	232.41
766.02	232.35
766.34	232.29
766.67	232.19
767.00	232.15
767.32	232.16
767.65	232.19
767.97	232.12
768.30	232.09
768.62	232.04
768.95	231.98
769.27	231.93
769.60	231.89
769.92	231.82
770.25	231.74
770.57	231.67
770.90	231.62
771.22	231.56
771.55	231.52
771.87	231.48
772.20	231.43
772.52	231.48
772.85	231.58
773.17	231.55
773.50	231.49
773.82	231.43
774.15	231.33
774.47	231.20
774.80	231.16
775.12	231.09
775.45	231.05
775.77	231.03
776.09	231.00
776.42	230.97
776.74	230.99
777.07	230.95
777.39	230.92
777.72	230.88
778.04	230.86
778.36	230.82
778.69	230.79
779.01	230.77
779.33	230.64
779.66	230.46
779.98	230.41
780.31	230.38
780.63	230.42
780.95	230.41
781.28	230.38
781.60	230.34
781.92	230.31
782.25	230.28
782.57	230.27
782.89	230.23
783.22	230.19
783.54	230.13
783.86	230.11
784.19	230.09
784.51	230.10
784.83	230.06
785.16	230.03
785.48	230.01
785.80	229.98
786.12	229.96
786.45	229.94
786.77	229.93
787.09	229.91
787.42	229.83
787.74	229.81
788.06	229.80
788.38	229.78
788.71	229.76
789.03	229.75
789.35	229.73
789.67	229.69
789.99	229.68
790.32	229.65
790.64	229.64
790.96	229.74
791.28	229.67
791.61	229.65
791.93	229.64
792.25	229.62
792.57	229.69
792.89	229.64
793.21	229.63
793.54	229.61
793.86	229.57
794.18	229.56
794.50	229.52
794.82	229.50
795.14	229.51
795.47	229.50
795.79	229.48
796.11	229.44
796.43	229.43
796.75	229.41
797.07	229.40
797.39	229.38
797.71	229.26
798.04	229.25
798.36	229.24
798.68	229.22
799.00	229.21
799.32	229.14
799.64	229.15
799.96	229.13
800.28	229.13
800.60	229.11
800.92	229.10
801.24	229.08
801.56	229.07
801.89	229.04
802.21	229.03
802.53	228.99
802.85	229.01
803.17	229.05
803.49	229.01
803.81	228.99
804.13	228.97
804.45	228.94
804.77	228.92
805.09	228.92
805.41	228.90
805.73	228.86
806.05	228.81
806.37	228.79
806.69	228.76
807.01	228.74
807.33	228.74
807.65	228.68
807.97	228.72
808.28	228.69
808.60	228.68
808.92	228.65
809.24	228.72
809.56	228.68
809.88	228.62
810.20	228.61
810.52	228.62
810.84	228.60
811.16	228.58
811.48	228.57
811.80	228.60
812.12	228.58
812.43	228.60
812.75	228.60
813.07	228.57
813.39	228.57
813.71	228.55
814.03	228.52
814.35	228.52
814.67	228.46
814.98	228.45
815.30	228.43
815.62	228.41
815.94	228.32
816.26	228.32
816.58	228.29
816.89	228.30
817.21	228.25
817.53	228.25
817.85	228.24
818.17	228.24
818.48	228.17
818.80	228.19
819.12	228.17
819.44	228.14
819.76	228.13
820.07	228.12
820.39	228.11
820.71	228.12
821.03	228.12
821.34	228.10
821.66	228.11
821.98	228.12
822.30	228.11
822.61	228.17
822.93	228.15
823.25	228.14
823.57	228.13
823.88	228.14
824.20	228.13
824.52	228.15
824.83	228.13
825.15	228.12
825.47	228.09
825.79	228.09
826.10	228.08
826.42	228.07
826.74	228.08
827.05	228.07
827.37	228.06
827.69	228.04
828.00	228.04
828.32	228.03
828.64	228.00
828.95	228.07
829.27	228.03
829.58	228.03
829.90	228.04
830.22	228.04
830.53	228.01
830.85	227.99
831.17	227.95
831.48	227.95
831.80	227.96
832.11	227.94
832.43	227.92
832.75	227.92
833.06	227.99
833.38	227.95
833.69	227.95
834.01	227.96
834.32	227.94
834.64	227.92
834.96	227.92
835.27	227.92
835.59	227.86
835.90	227.84
836.22	227.83
836.53	227.80
836.85	227.78
837.16	227.91
837.48	227.90
837.79	227.94
838.11	227.94
838.42	227.93
838.74	227.93
839.05	227.93
839.37	227.91
839.68	227.84
840.00	227.83
840.31	227.84
840.63	227.82
840.94	227.81
841.26	227.79
841.57	227.79
841.88	227.80
842.20	227.78
842.51	227.75
842.83	227.75
843.14	227.85
843.46	227.83
843.77	227.75
844.08	227.75
844.40	227.70
844.71	227.68
845.03	227.67
845.34	227.65
845.65	227.65
845.97	227.65
846.28	227.65
846.60	227.65
846.91	227.63
847.22	227.63
847.54	227.65
847.85	227.66
848.16	227.63
848.48	227.61
848.79	227.66
849.10	227.67
849.42	227.68
849.73	227.57
850.04	227.57
850.36	227.53
850.67	227.54
850.98	227.54
851.30	227.55
851.61	227.54
851.92	227.54
852.23	227.57
852.55	227.58
852.86	227.58
853.17	227.59
853.49	227.61
853.80	227.63
854.11	227.64
854.42	227.65
854.74	227.65
855.05	227.64
855.36	227.58
855.67	227.58
855.99	227.57
856.30	227.72
856.61	227.73
856.92	227.72
857.23	227.72
857.55	227.71
857.86	227.71
858.17	227.73
858.48	227.72
858.79	227.69
859.11	227.68
859.42	227.67
859.73	227.65
860.04	227.64
860.35	227.61
860.66	227.56
860.98	227.56
861.29	227.57
861.60	227.57
861.91	227.61
862.22	227.58
862.53	227.55
862.84	227.40
863.16	227.43
863.47	227.41
863.78	227.41
864.09	227.42
864.40	227.42
864.71	227.42
865.02	227.42
865.33	227.42
865.64	227.39
865.95	227.39
866.27	227.48
866.58	227.47
866.89	227.47
867.20	227.48
867.51	227.45
867.82	227.44
868.13	227.47
868.44	227.45
868.75	227.47
869.06	227.48
869.37	227.49
869.68	227.46
869.99	227.47
870.30	227.47
870.61	227.49
870.92	227.48
871.23	227.47
871.54	227.47
871.85	227.50
872.16	227.51
872.47	227.48
872.78	227.41
873.09	227.42
873.40	227.41
873.71	227.42
874.02	227.44
874.33	227.43
874.64	227.39
874.95	227.40
875.26	227.38
875.56	227.37
875.87	227.36
876.18	227.36
876.49	227.48
876.80	227.47
877.11	227.44
877.42	227.44
877.73	227.44
878.04	227.43
878.35	227.42
878.66	227.43
878.96	227.44
879.27	227.44
879.58	227.43
879.89	227.42
880.20	227.45
880.51	227.45
880.82	227.45
881.12	227.46
881.43	227.44
881.74	227.44
882.05	227.43
882.36	227.44
882.67	227.44
882.97	227.31
883.28	227.31
883.59	227.31
883.90	227.31
884.21	227.32
884.51	227.32
884.82	227.31
885.13	227.29
885.44	227.29
885.74	227.29
886.05	227.28
886.36	227.28
886.67	227.23
886.98	227.30
887.28	227.30
887.59	227.30
887.90	227.31
888.20	227.30
888.51	227.32
888.82	227.30
889.13	227.31
889.43	227.41
889.74	227.40
890.05	227.41
890.35	227.41
890.66	227.39
890.97	227.36
891.28	227.35
891.58	227.36
891.89	227.37
892.20	227.35
892.50	227.34
892.81	227.33
893.12	227.33
893.42	227.27
893.73	227.27
894.04	227.27
894.34	227.28
894.65	227.28
894.95	227.26
895.26	227.28
895.57	227.33
895.87	227.20
896.18	227.22
896.48	227.21
896.79	227.20
897.10	227.21
897.40	227.23
897.71	227.23
898.01	227.21
898.32	227.23
898.63	227.23
898.93	227.23
899.24	227.24
899.54	227.23
899.85	227.22
900.15	227.22
900.46	227.22
900.76	227.22
901.07	227.21
901.38	227.20
901.68	227.21
901.99	227.15
902.29	227.17
902.60	227.17
902.90	227.15
903.21	227.16
903.51	227.15
903.82	227.17
904.12	227.17
904.43	227.18
904.73	227.17
905.03	227.18
905.34	227.29
905.64	227.27
905.95	227.28
906.25	227.28
906.56	227.28
906.86	227.27
907.17	227.25
907.47	227.27
907.77	227.25
908.08	227.23
908.38	227.22
908.69	227.22
908.99	227.24
909.30	227.25
909.60	227.24
909.90	227.25
910.21	227.20
910.51	227.18
910.81	227.18
911.12	227.19
911.42	227.18
911.73	227.05
912.03	227.06
912.33	227.09
912.64	227.08
912.94	227.06
913.24	227.04
913.55	227.03
913.85	227.02
914.15	227.05
914.46	227.07
914.76	227.05
915.06	227.04
915.37	227.01
915.67	227.00
915.97	227.01
916.27	226.97
916.58	226.98
916.88	226.99
917.18	226.98
917.49	227.05
917.79	227.05
918.09	227.07
918.39	227.09
918.70	227.09
919.00	227.10
919.30	227.15
919.60	227.14
919.91	227.13
920.21	227.14
920.51	227.11
920.81	227.10
921.12	227.13
921.42	227.12
921.72	227.14
922.02	227.15
922.32	227.16
922.63	227.17
922.93	227.24
923.23	227.24
923.53	227.24
923.83	227.16
924.13	227.17
924.44	227.17
924.74	227.18
925.04	227.21
925.34	227.21
925.64	227.16
925.94	227.16
926.24	227.23
926.55	227.22
926.85	227.23
927.15	227.23
927.45	227.23
927.75	227.23
928.05	227.22
928.35	227.21
928.65	227.23
928.95	227.24
929.26	227.18
929.56	227.20
929.86	227.21
930.16	227.21
930.46	227.19
930.76	227.19
931.06	227.13
931.36	227.09
931.66	227.11
931.96	227.13
932.26	227.13
932.56	227.08
932.86	227.08
933.16	227.08
933.46	227.08
933.76	227.05
934.06	227.07
934.36	227.13
934.66	227.12
934.96	227.10
935.26	227.10
935.56	227.12
935.86	227.10
936.16	227.09
936.46	227.07
936.76	227.06
937.06	227.05
937.36	227.05
937.66	227.07
937.96	227.06
938.26	227.03
938.56	227.02
938.86	227.03
939.16	227.06
939.46	227.07
939.76	227.07
940.06	227.07
940.35	227.05
940.65	226.99
940.95	226.99
941.25	226.96
941.55	226.95
941.85	226.93
942.15	226.96
942.45	226.99
942.75	226.98
943.04	226.99
943.34	227.03
943.64	227.01
943.94	226.98
944.24	226.98
944.54	226.99
944.84	226.98
945.13	226.97
945.43	226.95
945.73	226.95
946.03	226.94
946.33	226.93
946.62	226.92
946.92	226.93
947.22	226.94
947.52	226.95
947.82	226.96
948.11	226.95
948.41	226.93
948.71	226.89
949.01	226.90
949.31	226.90
949.60	226.88
949.90	226.91
950.20	226.90
950.50	226.89
950.79	226.89
951.09	226.91
951.39	226.90
951.69	226.88
951.98	226.90
952.28	226.91
952.58	226.91
952.87	226.91
953.17	226.92
953.47	226.90
953.76	226.90
954.06	226.89
954.36	226.88
954.66	226.87
954.95	226.91
955.25	226.92
955.55	226.93
955.84	226.91
956.14	226.92
956.44	226.94
956.73	226.92
957.03	226.94
957.32	226.93
957.62	226.94
957.92	226.97
958.21	226.94
958.51	227.09
958.81	227.10
959.10	227.12
959.40	227.14
959.69	227.16
959.99	227.16
960.29	227.16
960.58	227.15
960.88	227.20
961.17	227.18
961.47	227.18
961.76	227.16
962.06	227.19
962.36	227.18
962.65	227.19
962.95	227.20
963.24	227.18
963.54	227.18
963.83	227.19
964.13	227.18
964.42	227.17
964.72	227.07
965.01	227.07
965.31	227.06
965.60	227.02
965.90	227.09
966.19	227.07
966.49	227.08
966.78	227.07
967.08	227.06
967.37	227.06
967.67	227.04
967.96	227.07
968.26	227.07
968.55	227.08
968.85	227.08
969.14	227.08
969.43	227.08
969.73	227.07
970.02	227.06
970.32	227.04
970.61	227.02
970.91	226.98
971.20	226.97
971.49	226.96
971.79	226.98
972.08	226.90
972.38	226.91
972.67	226.90
972.96	226.92
973.26	226.89
973.55	226.93
973.85	226.92
974.14	226.90
974.43	226.91
974.73	226.88
975.02	226.86
975.31	226.85
975.61	226.85
975.90	226.84
976.19	226.83
976.49	226.84
976.78	226.86
977.07	226.86
977.37	226.86
977.66	226.87
977.95	226.85
978.24	226.85
978.54	226.87
978.83	226.87
979.12	226.86
979.42	226.86
979.71	226.83
980.00	226.84
980.29	226.84
980.59	226.82
980.88	226.85
981.17	226.85
981.46	226.86
981.76	226.86
982.05	226.90
982.34	226.91
982.63	226.92
982.93	226.91
983.22	226.95
983.51	226.95
983.80	226.98
984.09	226.99
984.39	226.98
984.68	226.97
984.97	226.98
985.26	226.96
985.55	226.98
985.85	226.95
986.14	226.97
986.43	226.98
986.72	226.97
987.01	226.93
987.30	226.93
987.59	226.92
987.89	226.92
988.18	226.88
988.47	226.86
988.76	226.85
989.05	226.85
989.34	226.82
989.63	226.85
989.92	226.84
990.22	226.83
990.51	226.83
990.80	226.83
991.09	226.83
991.38	226.86
991.67	226.85
991.96	226.84
992.25	226.85
992.54	226.83
992.83	226.84
993.12	226.84
993.41	226.87
993.70	226.92
993.99	226.95
994.28	226.97
994.58	227.00
994.87	226.98
995.16	226.98
995.45	226.97
995.74	226.92
996.03	226.94
996.32	226.96
996.61	226.99
996.90	226.98
997.19	226.98
997.48	226.97
997.77	226.96
998.06	226.97
998.34	226.94
998.63	226.95
998.92	226.95
999.21	226.97
999.50	226.97
999.79	226.93
1000.08	226.91
1000.37	226.91
1000.66	226.90
1000.95	226.93
1001.24	226.94
1001.53	226.95
1001.82	226.96
1002.11	226.93
1002.40	226.93
1002.68	226.95
1002.97	227.04
1003.26	227.02
1003.55	227.01
1003.84	227.02
1004.13	227.06
1004.42	227.06
1004.71	227.06
1004.99	227.06
1005.28	227.09
1005.57	227.09
1005.86	227.08
1006.15	227.07
1006.44	227.06
1006.72	227.07
1007.01	227.05
1007.30	227.04
1007.59	227.03
1007.88	227.02
1008.17	227.03
1008.45	227.00
1008.74	226.95
1009.03	226.88
1009.32	226.88
1009.60	226.89
1009.89	226.87
1010.18	226.83
1010.47	226.83
1010.76	226.83
1011.04	226.82
1011.33	226.81
1011.62	226.82
1011.91	226.83
1012.19	226.84
1012.48	226.84
1012.77	226.84
1013.05	226.89
1013.34	226.89
1013.63	226.88
1013.92	226.89
1014.20	226.90
1014.49	226.91
1014.78	226.92
1015.06	226.88
1015.35	226.89
1015.64	226.90
1015.92	226.92
1016.21	226.92
1016.50	226.92
1016.78	226.93
1017.07	226.94
1017.36	226.91
1017.64	226.89
1017.93	226.89
1018.22	226.87
1018.50	226.87
1018.79	226.87
1019.08	226.82
1019.36	226.82
1019.65	226.82
1019.93	226.85
1020.22	226.86
1020.51	226.92
1020.79	226.91
1021.08	226.60
1021.36	226.74
1021.65	226.95
1021.94	226.76
1022.22	226.87
1022.51	226.62
1022.79	227.45
1023.08	227.00
1023.36	228.35
1023.65	226.63
>>>>>End Processed Spectral Data<<<<<
