SpectraSuite Data File
++++++++++++++++++++++++++++++++++++
Date: Tue Oct 06 15:48:04 EDT 2015
User: lab3
Dark Spectrum Present: No
Reference Spectrum Present: No
Number of Sampled Component Spectra: 1
Spectrometers: USB2E7196
Integration Time (usec): 66000 (USB2E7196)
Spectra Averaged: 1000 (USB2E7196)
Boxcar Smoothing: 10 (USB2E7196)
Correct for Electrical Dark: No (USB2E7196)
Strobe/Lamp Enabled: No (USB2E7196)
Correct for Detector Non-linearity: No (USB2E7196)
Correct for Stray Light: No (USB2E7196)
Number of Pixels in Processed Spectrum: 2048
>>>>>Begin Processed Spectral Data<<<<<
339.09	0.00
339.48	215.45
339.86	216.94
340.24	218.48
340.63	219.73
341.01	223.76
341.39	222.53
341.78	224.08
342.16	225.10
342.54	225.54
342.93	214.02
343.31	224.84
343.69	225.38
344.07	225.85
344.46	226.29
344.84	226.70
345.22	226.89
345.60	227.16
345.99	227.36
346.37	227.52
346.75	227.64
347.13	227.73
347.52	227.82
347.90	227.93
348.28	227.98
348.66	228.05
349.05	228.04
349.43	228.11
349.81	228.19
350.19	228.26
350.57	228.35
350.96	228.44
351.34	228.54
351.72	228.65
352.10	228.77
352.48	228.85
352.87	228.90
353.25	228.98
353.63	229.04
354.01	229.10
354.39	229.18
354.77	229.26
355.15	229.39
355.54	229.44
355.92	229.47
356.30	229.54
356.68	229.73
357.06	229.81
357.44	229.85
357.82	229.89
358.20	230.11
358.58	230.17
358.97	230.24
359.35	230.34
359.73	230.43
360.11	230.49
360.49	230.56
360.87	230.60
361.25	230.67
361.63	230.78
362.01	230.85
362.39	230.88
362.77	230.93
363.15	230.95
363.53	230.98
363.91	231.02
364.29	231.05
364.67	230.92
365.05	230.94
365.43	230.99
365.81	231.04
366.19	230.99
366.57	231.06
366.95	231.06
367.33	231.02
367.71	231.01
368.09	231.04
368.47	231.04
368.85	231.03
369.23	231.06
369.61	230.98
369.99	231.03
370.37	231.03
370.75	231.15
371.13	231.11
371.51	231.08
371.89	231.07
372.27	231.05
372.65	231.03
373.03	230.99
373.41	230.94
373.78	230.89
374.16	230.78
374.54	230.68
374.92	230.63
375.30	230.60
375.68	230.52
376.06	230.49
376.44	230.43
376.82	230.39
377.19	230.35
377.57	230.29
377.95	230.19
378.33	230.13
378.71	229.93
379.09	229.89
379.47	229.86
379.84	229.79
380.22	229.72
380.60	229.64
380.98	229.59
381.36	229.53
381.73	229.47
382.11	229.45
382.49	229.41
382.87	229.35
383.25	229.30
383.62	229.46
384.00	229.38
384.38	229.35
384.76	229.35
385.13	229.36
385.51	229.34
385.89	229.27
386.27	229.24
386.64	229.24
387.02	229.20
387.40	229.15
387.78	229.13
388.15	229.13
388.53	229.09
388.91	229.07
389.29	229.04
389.66	229.04
390.04	229.00
390.42	229.02
390.79	229.02
391.17	229.00
391.55	228.79
391.92	228.79
392.30	228.79
392.68	228.75
393.05	228.72
393.43	228.71
393.81	228.73
394.18	228.71
394.56	228.71
394.94	228.76
395.31	228.77
395.69	228.83
396.06	228.88
396.44	228.92
396.82	228.95
397.19	229.08
397.57	229.10
397.95	229.16
398.32	229.16
398.70	229.23
399.07	229.33
399.45	229.40
399.82	229.47
400.20	229.53
400.58	229.62
400.95	229.64
401.33	229.77
401.70	230.00
402.08	230.14
402.45	230.27
402.83	230.43
403.20	230.60
403.58	230.73
403.95	230.93
404.33	231.15
404.71	231.35
405.08	231.66
405.46	231.91
405.83	232.19
406.21	232.49
406.58	232.80
406.96	233.12
407.33	233.48
407.70	233.90
408.08	234.47
408.45	234.97
408.83	235.52
409.20	236.03
409.58	236.48
409.95	237.11
410.33	237.79
410.70	238.44
411.08	239.20
411.45	240.01
411.82	240.83
412.20	241.77
412.57	242.89
412.95	243.77
413.32	244.92
413.69	246.10
414.07	247.36
414.44	248.73
414.82	250.13
415.19	251.79
415.56	253.46
415.94	255.22
416.31	257.17
416.68	259.12
417.06	261.39
417.43	263.52
417.81	265.97
418.18	268.46
418.55	271.18
418.93	274.01
419.30	277.00
419.67	280.15
420.04	283.39
420.42	286.77
420.79	290.68
421.16	294.63
421.54	298.61
421.91	302.80
422.28	307.16
422.66	311.83
423.03	316.29
423.40	320.95
423.77	325.95
424.15	331.07
424.52	336.38
424.89	342.12
425.26	347.83
425.64	353.12
426.01	359.06
426.38	365.13
426.75	371.36
427.13	377.73
427.50	384.41
427.87	391.35
428.24	398.35
428.61	405.06
428.99	412.28
429.36	420.21
429.73	427.79
430.10	435.33
430.47	443.05
430.85	451.04
431.22	459.58
431.59	468.31
431.96	476.84
432.33	486.29
432.70	495.30
433.08	505.96
433.45	516.01
433.82	525.92
434.19	537.05
434.56	548.00
434.93	558.65
435.30	569.18
435.68	581.15
436.05	592.80
436.42	604.49
436.79	615.19
437.16	626.81
437.53	639.21
437.90	651.63
438.27	663.83
438.64	676.97
439.01	688.92
439.38	699.90
439.75	710.51
440.13	722.61
440.50	734.09
440.87	743.29
441.24	753.41
441.61	764.49
441.98	772.69
442.35	782.39
442.72	792.26
443.09	801.65
443.46	807.75
443.83	812.42
444.20	816.27
444.57	821.87
444.94	825.18
445.31	828.60
445.68	831.52
446.05	833.74
446.42	833.46
446.79	832.90
447.16	832.45
447.53	832.06
447.90	828.49
448.27	825.07
448.64	819.67
449.01	815.94
449.37	808.26
449.74	801.31
450.11	792.31
450.48	782.42
450.85	772.53
451.22	764.00
451.59	755.63
451.96	748.05
452.33	737.05
452.70	727.28
453.07	715.41
453.43	703.62
453.80	692.06
454.17	680.99
454.54	670.80
454.91	659.26
455.28	648.38
455.65	638.12
456.02	627.26
456.38	618.56
456.75	607.39
457.12	598.38
457.49	589.25
457.86	580.63
458.23	573.02
458.59	564.65
458.96	556.08
459.33	548.55
459.70	540.89
460.07	535.03
460.43	528.13
460.80	521.69
461.17	516.07
461.54	510.01
461.91	504.34
462.27	498.56
462.64	493.85
463.01	488.47
463.38	483.03
463.74	478.14
464.11	473.78
464.48	469.85
464.85	465.62
465.21	462.37
465.58	458.77
465.95	454.69
466.32	451.42
466.68	448.23
467.05	444.98
467.42	441.83
467.78	438.46
468.15	435.36
468.52	433.09
468.88	430.10
469.25	427.36
469.62	425.19
469.98	422.81
470.35	420.70
470.72	418.79
471.08	416.86
471.45	415.23
471.82	413.41
472.18	411.53
472.55	410.28
472.92	408.74
473.28	407.56
473.65	406.29
474.02	405.07
474.38	404.04
474.75	403.44
475.11	402.60
475.48	402.23
475.85	401.82
476.21	401.57
476.58	401.39
476.94	401.56
477.31	401.61
477.67	401.72
478.04	402.05
478.41	402.49
478.77	403.09
479.14	403.49
479.50	404.29
479.87	405.30
480.23	406.30
480.60	407.25
480.96	408.21
481.33	409.65
481.69	411.08
482.06	412.49
482.42	413.79
482.79	415.43
483.15	417.31
483.52	419.43
483.88	421.45
484.25	423.59
484.61	425.86
484.98	428.29
485.34	431.03
485.71	433.86
486.07	436.92
486.44	439.97
486.80	443.39
487.17	446.87
487.53	450.65
487.90	454.62
488.26	458.94
488.62	463.47
488.99	468.00
489.35	472.73
489.72	477.85
490.08	483.22
490.44	488.70
490.81	494.45
491.17	500.34
491.54	506.64
491.90	513.11
492.26	519.99
492.63	527.21
492.99	534.73
493.36	542.43
493.72	550.50
494.08	558.73
494.45	567.37
494.81	576.42
495.17	585.72
495.54	595.52
495.90	605.73
496.26	616.17
496.63	626.85
496.99	637.97
497.35	649.56
497.72	661.44
498.08	673.67
498.44	686.17
498.80	699.39
499.17	712.91
499.53	726.87
499.89	741.26
500.26	755.85
500.62	770.79
500.98	786.52
501.34	802.30
501.71	818.89
502.07	835.69
502.43	852.97
502.79	870.44
503.16	888.41
503.52	906.59
503.88	925.18
504.24	944.26
504.60	963.51
504.97	983.35
505.33	1003.67
505.69	1024.97
506.05	1046.45
506.41	1067.77
506.78	1089.28
507.14	1111.42
507.50	1133.95
507.86	1156.82
508.22	1179.88
508.59	1202.78
508.95	1226.76
509.31	1251.16
509.67	1276.19
510.03	1301.11
510.39	1325.98
510.75	1350.89
511.12	1376.12
511.48	1401.40
511.84	1426.69
512.20	1452.32
512.56	1478.88
512.92	1505.25
513.28	1531.02
513.64	1557.15
514.00	1583.56
514.37	1610.24
514.73	1636.86
515.09	1662.79
515.45	1689.05
515.81	1715.31
516.17	1741.26
516.53	1766.62
516.89	1791.91
517.25	1817.41
517.61	1842.68
517.97	1868.51
518.33	1893.69
518.69	1918.69
519.05	1944.13
519.41	1969.61
519.77	1994.99
520.13	2019.00
520.49	2043.11
520.85	2067.54
521.21	2091.37
521.57	2115.51
521.93	2138.67
522.29	2162.28
522.65	2185.75
523.01	2208.90
523.37	2231.47
523.73	2254.78
524.09	2277.65
524.45	2299.99
524.81	2321.73
525.17	2343.16
525.53	2364.05
525.89	2385.19
526.25	2405.94
526.61	2425.23
526.97	2444.47
527.33	2463.52
527.68	2482.19
528.04	2500.35
528.40	2517.18
528.76	2534.33
529.12	2551.06
529.48	2568.13
529.84	2582.71
530.20	2597.67
530.56	2611.70
530.91	2625.91
531.27	2639.56
531.63	2652.24
531.99	2664.72
532.35	2676.68
532.71	2688.27
533.07	2700.04
533.42	2710.02
533.78	2720.38
534.14	2731.45
534.50	2741.46
534.86	2751.94
535.21	2760.48
535.57	2768.84
535.93	2777.17
536.29	2783.75
536.65	2790.02
537.00	2794.81
537.36	2800.94
537.72	2805.98
538.08	2810.53
538.44	2814.11
538.79	2817.33
539.15	2819.24
539.51	2820.60
539.87	2820.90
540.22	2819.73
540.58	2818.78
540.94	2818.81
541.29	2817.40
541.65	2814.76
542.01	2811.63
542.37	2807.13
542.72	2804.02
543.08	2799.43
543.44	2794.95
543.79	2789.88
544.15	2784.22
544.51	2778.96
544.87	2772.46
545.22	2765.24
545.58	2757.90
545.94	2750.75
546.29	2742.13
546.65	2733.81
547.01	2725.44
547.36	2717.45
547.72	2709.73
548.07	2700.21
548.43	2689.75
548.79	2679.05
549.14	2668.74
549.50	2658.66
549.86	2647.61
550.21	2635.09
550.57	2623.50
550.92	2610.28
551.28	2597.69
551.64	2585.26
551.99	2572.51
552.35	2559.45
552.70	2546.22
553.06	2533.48
553.41	2520.27
553.77	2506.79
554.13	2493.46
554.48	2479.20
554.84	2464.35
555.19	2449.95
555.55	2435.43
555.90	2421.23
556.26	2407.48
556.61	2392.56
556.97	2376.64
557.32	2361.27
557.68	2346.21
558.03	2330.85
558.39	2316.40
558.74	2302.49
559.10	2286.86
559.45	2271.65
559.81	2257.17
560.16	2242.33
560.52	2227.37
560.87	2212.44
561.23	2197.31
561.58	2182.54
561.94	2167.35
562.29	2151.71
562.64	2136.18
563.00	2120.92
563.35	2105.77
563.71	2090.28
564.06	2074.97
564.42	2060.22
564.77	2045.43
565.12	2030.50
565.48	2015.48
565.83	2000.76
566.19	1986.00
566.54	1971.55
566.89	1956.41
567.25	1940.99
567.60	1926.55
567.96	1911.18
568.31	1894.92
568.66	1879.63
569.02	1864.91
569.37	1850.66
569.72	1837.01
570.08	1822.93
570.43	1808.35
570.78	1793.54
571.14	1778.52
571.49	1763.72
571.84	1749.21
572.20	1733.71
572.55	1718.89
572.90	1704.09
573.26	1689.18
573.61	1673.72
573.96	1658.77
574.31	1643.70
574.67	1628.74
575.02	1613.38
575.37	1598.19
575.72	1583.62
576.08	1568.84
576.43	1553.49
576.78	1538.28
577.13	1523.26
577.49	1508.49
577.84	1494.07
578.19	1479.27
578.54	1464.62
578.90	1449.90
579.25	1435.08
579.60	1421.24
579.95	1407.26
580.30	1393.20
580.66	1378.91
581.01	1364.74
581.36	1350.77
581.71	1337.49
582.06	1324.10
582.42	1310.58
582.77	1297.61
583.12	1284.78
583.47	1271.83
583.82	1259.13
584.17	1246.09
584.53	1233.09
584.88	1220.36
585.23	1207.52
585.58	1195.06
585.93	1182.58
586.28	1170.95
586.63	1159.17
586.98	1147.15
587.34	1135.38
587.69	1123.51
588.04	1112.08
588.39	1100.86
588.74	1089.21
589.09	1077.73
589.44	1066.00
589.79	1054.83
590.14	1043.63
590.49	1032.60
590.84	1021.83
591.19	1011.24
591.54	1000.78
591.89	989.94
592.25	979.48
592.60	968.90
592.95	958.47
593.30	948.33
593.65	937.94
594.00	927.83
594.35	918.58
594.70	908.68
595.05	899.41
595.40	889.85
595.75	880.17
596.10	871.11
596.45	862.02
596.80	853.28
597.15	844.60
597.50	835.95
597.85	827.42
598.19	818.89
598.54	810.41
598.89	802.37
599.24	794.71
599.59	786.90
599.94	779.67
600.29	772.42
600.64	765.05
600.99	757.59
601.34	750.33
601.69	742.60
602.04	735.68
602.39	728.66
602.74	721.81
603.08	715.17
603.43	708.45
603.78	701.72
604.13	695.10
604.48	688.51
604.83	682.12
605.18	675.85
605.53	669.71
605.87	663.50
606.22	657.43
606.57	651.29
606.92	645.05
607.27	638.84
607.62	632.89
607.96	627.16
608.31	621.79
608.66	616.39
609.01	611.22
609.36	606.05
609.70	600.76
610.05	595.57
610.40	590.55
610.75	585.50
611.10	580.66
611.44	575.81
611.79	571.05
612.14	566.24
612.49	561.49
612.83	556.98
613.18	552.52
613.53	548.07
613.88	543.79
614.22	539.79
614.57	535.72
614.92	531.73
615.27	527.86
615.61	523.90
615.96	519.98
616.31	516.05
616.65	512.28
617.00	508.61
617.35	504.96
617.70	501.30
618.04	497.78
618.39	494.35
618.74	491.13
619.08	487.90
619.43	484.77
619.78	481.56
620.12	478.40
620.47	475.44
620.82	472.49
621.16	469.56
621.51	466.69
621.85	463.84
622.20	461.06
622.55	458.23
622.89	455.48
623.24	452.88
623.59	450.33
623.93	447.84
624.28	445.48
624.62	443.35
624.97	441.19
625.32	438.94
625.66	436.65
626.01	434.38
626.35	432.20
626.70	429.96
627.04	427.92
627.39	425.82
627.73	423.79
628.08	421.85
628.43	419.90
628.77	417.86
629.12	415.98
629.46	414.15
629.81	412.46
630.15	410.69
630.50	408.96
630.84	407.24
631.19	405.57
631.53	403.97
631.88	402.18
632.22	400.50
632.57	399.07
632.91	397.64
633.26	396.23
633.60	394.86
633.95	393.56
634.29	392.13
634.64	390.77
634.98	389.28
635.32	387.97
635.67	386.76
636.01	385.58
636.36	384.42
636.70	383.35
637.05	382.12
637.39	381.01
637.73	379.90
638.08	378.88
638.42	377.87
638.77	376.74
639.11	375.59
639.45	374.45
639.80	373.27
640.14	372.15
640.49	371.05
640.83	369.94
641.17	368.84
641.52	367.80
641.86	366.80
642.20	365.95
642.55	364.88
642.89	363.84
643.23	362.89
643.58	362.01
643.92	360.99
644.26	360.07
644.61	359.19
644.95	358.25
645.29	357.23
645.64	356.21
645.98	355.29
646.32	354.48
646.66	353.64
647.01	352.81
647.35	352.06
647.69	351.26
648.04	350.55
648.38	349.79
648.72	349.08
649.06	348.31
649.41	347.50
649.75	346.76
650.09	346.05
650.43	345.31
650.78	344.55
651.12	343.83
651.46	343.09
651.80	342.38
652.14	341.72
652.49	341.12
652.83	340.44
653.17	339.73
653.51	339.05
653.85	338.47
654.20	337.84
654.54	337.11
654.88	336.43
655.22	335.78
655.56	335.11
655.90	334.45
656.25	333.82
656.59	333.21
656.93	332.66
657.27	332.12
657.61	331.51
657.95	330.95
658.29	330.38
658.64	329.84
658.98	329.24
659.32	328.64
659.66	328.09
660.00	327.57
660.34	327.06
660.68	326.48
661.02	325.85
661.36	325.26
661.70	324.71
662.05	324.18
662.39	323.66
662.73	323.20
663.07	322.78
663.41	322.31
663.75	321.80
664.09	321.28
664.43	320.65
664.77	320.15
665.11	319.55
665.45	319.02
665.79	318.51
666.13	317.96
666.47	317.42
666.81	316.83
667.15	316.24
667.49	315.78
667.83	315.36
668.17	314.92
668.51	314.48
668.85	314.07
669.19	313.69
669.53	313.14
669.87	312.60
670.21	312.06
670.55	311.56
670.89	311.17
671.23	310.72
671.57	310.35
671.91	309.97
672.25	309.65
672.58	309.32
672.92	308.88
673.26	308.53
673.60	308.15
673.94	307.78
674.28	307.44
674.62	307.05
674.96	306.59
675.30	306.18
675.64	305.74
675.97	305.28
676.31	304.81
676.65	304.39
676.99	304.06
677.33	303.60
677.67	303.21
678.01	302.71
678.34	302.27
678.68	301.87
679.02	301.41
679.36	300.96
679.70	300.50
680.04	300.09
680.37	299.69
680.71	299.29
681.05	298.92
681.39	298.49
681.73	298.02
682.06	297.60
682.40	297.19
682.74	296.83
683.08	296.53
683.42	296.12
683.75	295.76
684.09	295.28
684.43	294.88
684.77	294.44
685.10	294.06
685.44	293.67
685.78	293.24
686.12	292.83
686.45	292.41
686.79	291.96
687.13	291.55
687.46	291.08
687.80	290.66
688.14	290.17
688.48	289.77
688.81	289.35
689.15	288.98
689.49	288.56
689.82	288.12
690.16	287.58
690.50	287.14
690.83	286.69
691.17	286.24
691.51	285.82
691.84	285.43
692.18	284.99
692.52	284.52
692.85	284.09
693.19	283.73
693.52	283.30
693.86	282.87
694.20	282.44
694.53	282.04
694.87	281.58
695.21	281.15
695.54	280.71
695.88	280.26
696.21	279.78
696.55	279.34
696.88	278.89
697.22	278.47
697.56	278.08
697.89	277.63
698.23	277.24
698.56	276.81
698.90	276.40
699.23	275.97
699.57	275.59
699.90	275.16
700.24	274.70
700.58	274.32
700.91	273.98
701.25	273.75
701.58	273.44
701.92	273.13
702.25	272.76
702.59	272.37
702.92	272.00
703.26	271.62
703.59	271.24
703.93	271.02
704.26	270.67
704.60	270.28
704.93	269.90
705.26	269.52
705.60	269.20
705.93	268.79
706.27	268.49
706.60	268.18
706.94	267.89
707.27	267.50
707.61	267.14
707.94	266.74
708.27	266.20
708.61	265.78
708.94	265.39
709.28	265.05
709.61	264.69
709.94	264.38
710.28	264.05
710.61	263.75
710.95	263.26
711.28	263.04
711.61	262.70
711.95	262.42
712.28	262.09
712.61	261.73
712.95	261.49
713.28	261.24
713.61	260.87
713.95	260.52
714.28	260.22
714.61	259.88
714.95	259.57
715.28	259.26
715.61	258.97
715.95	258.68
716.28	258.36
716.61	258.12
716.95	257.81
717.28	257.52
717.61	257.23
717.94	256.96
718.28	256.56
718.61	256.28
718.94	255.97
719.27	255.71
719.61	255.47
719.94	255.17
720.27	254.82
720.60	254.57
720.94	254.32
721.27	254.09
721.60	253.87
721.93	253.62
722.27	253.43
722.60	253.20
722.93	252.93
723.26	252.71
723.59	252.43
723.93	252.22
724.26	252.01
724.59	251.77
724.92	251.57
725.25	251.40
725.59	251.17
725.92	250.98
726.25	250.76
726.58	250.53
726.91	250.29
727.24	250.09
727.57	249.86
727.91	249.60
728.24	249.41
728.57	249.19
728.90	249.00
729.23	248.74
729.56	248.63
729.89	248.42
730.22	248.21
730.55	248.01
730.89	247.81
731.22	247.61
731.55	247.42
731.88	247.23
732.21	247.02
732.54	246.82
732.87	246.65
733.20	246.47
733.53	246.31
733.86	246.16
734.19	245.97
734.52	245.82
734.85	245.80
735.18	245.60
735.51	245.49
735.84	245.34
736.17	245.23
736.50	244.96
736.83	245.01
737.16	244.85
737.49	244.71
737.82	244.53
738.15	244.39
738.48	244.24
738.81	244.07
739.14	243.89
739.47	243.72
739.80	243.56
740.13	243.43
740.46	243.24
740.79	243.06
741.12	242.91
741.45	242.72
741.78	242.46
742.11	242.36
742.44	242.16
742.77	242.02
743.10	241.84
743.43	241.69
743.75	241.35
744.08	241.48
744.41	241.31
744.74	241.18
745.07	241.00
745.40	240.90
745.73	240.84
746.06	240.70
746.39	240.61
746.71	240.48
747.04	240.33
747.37	240.20
747.70	240.10
748.03	239.98
748.36	239.90
748.68	239.78
749.01	239.61
749.34	239.51
749.67	239.40
750.00	239.32
750.33	239.33
750.65	239.24
750.98	238.88
751.31	238.78
751.64	238.68
751.97	238.68
752.29	238.54
752.62	238.35
752.95	238.26
753.28	238.12
753.60	238.01
753.93	237.94
754.26	237.85
754.59	237.69
754.91	237.57
755.24	237.44
755.57	237.35
755.90	237.25
756.22	237.12
756.55	236.98
756.88	236.84
757.20	236.62
757.53	236.47
757.86	236.38
758.19	236.29
758.51	236.19
758.84	236.00
759.17	235.90
759.49	235.81
759.82	235.79
760.15	235.73
760.47	235.63
760.80	235.50
761.13	235.43
761.45	235.36
761.78	235.27
762.11	235.20
762.43	235.09
762.76	235.00
763.08	234.96
763.41	234.90
763.74	234.84
764.06	234.77
764.39	234.71
764.71	234.63
765.04	234.53
765.37	234.43
765.69	234.36
766.02	234.30
766.34	234.22
766.67	234.08
767.00	234.02
767.32	234.05
767.65	234.09
767.97	234.02
768.30	233.96
768.62	233.90
768.95	233.81
769.27	233.75
769.60	233.71
769.92	233.61
770.25	233.52
770.57	233.42
770.90	233.36
771.22	233.29
771.55	233.23
771.87	233.19
772.20	233.14
772.52	233.24
772.85	233.40
773.17	233.36
773.50	233.29
773.82	233.21
774.15	233.07
774.47	232.90
774.80	232.83
775.12	232.79
775.45	232.73
775.77	232.70
776.09	232.68
776.42	232.63
776.74	232.64
777.07	232.60
777.39	232.56
777.72	232.51
778.04	232.50
778.36	232.43
778.69	232.39
779.01	232.35
779.33	232.16
779.66	231.91
779.98	231.87
780.31	231.85
780.63	231.89
780.95	231.89
781.28	231.86
781.60	231.80
781.92	231.75
782.25	231.72
782.57	231.68
782.89	231.64
783.22	231.58
783.54	231.51
783.86	231.49
784.19	231.45
784.51	231.47
784.83	231.41
785.16	231.38
785.48	231.34
785.80	231.31
786.12	231.31
786.45	231.29
786.77	231.26
787.09	231.22
787.42	231.13
787.74	231.10
788.06	231.08
788.38	231.05
788.71	231.02
789.03	231.01
789.35	230.99
789.67	230.94
789.99	230.93
790.32	230.87
790.64	230.86
790.96	231.01
791.28	230.92
791.61	230.88
791.93	230.87
792.25	230.84
792.57	230.95
792.89	230.88
793.21	230.85
793.54	230.81
793.86	230.77
794.18	230.75
794.50	230.69
794.82	230.67
795.14	230.67
795.47	230.69
795.79	230.67
796.11	230.61
796.43	230.60
796.75	230.57
797.07	230.57
797.39	230.54
797.71	230.37
798.04	230.35
798.36	230.36
798.68	230.34
799.00	230.32
799.32	230.21
799.64	230.22
799.96	230.19
800.28	230.21
800.60	230.20
800.92	230.20
801.24	230.17
801.56	230.17
801.89	230.13
802.21	230.11
802.53	230.07
802.85	230.09
803.17	230.16
803.49	230.11
803.81	230.08
804.13	230.04
804.45	230.01
804.77	230.00
805.09	229.98
805.41	229.94
805.73	229.90
806.05	229.84
806.37	229.82
806.69	229.79
807.01	229.75
807.33	229.75
807.65	229.67
807.97	229.73
808.28	229.69
808.60	229.66
808.92	229.63
809.24	229.72
809.56	229.68
809.88	229.58
810.20	229.58
810.52	229.61
810.84	229.58
811.16	229.55
811.48	229.53
811.80	229.57
812.12	229.56
812.43	229.58
812.75	229.58
813.07	229.55
813.39	229.54
813.71	229.51
814.03	229.48
814.35	229.48
814.67	229.39
814.98	229.37
815.30	229.37
815.62	229.32
815.94	229.19
816.26	229.19
816.58	229.16
816.89	229.17
817.21	229.11
817.53	229.12
817.85	229.12
818.17	229.11
818.48	229.03
818.80	229.05
819.12	229.02
819.44	228.97
819.76	228.95
820.07	228.94
820.39	228.93
820.71	228.94
821.03	228.92
821.34	228.90
821.66	228.92
821.98	228.92
822.30	228.91
822.61	229.02
822.93	228.98
823.25	228.97
823.57	228.94
823.88	228.94
824.20	228.93
824.52	228.95
824.83	228.93
825.15	228.90
825.47	228.88
825.79	228.88
826.10	228.88
826.42	228.87
826.74	228.86
827.05	228.84
827.37	228.83
827.69	228.82
828.00	228.82
828.32	228.81
828.64	228.79
828.95	228.87
829.27	228.80
829.58	228.81
829.90	228.83
830.22	228.83
830.53	228.80
830.85	228.76
831.17	228.70
831.48	228.70
831.80	228.71
832.11	228.69
832.43	228.65
832.75	228.64
833.06	228.74
833.38	228.69
833.69	228.69
834.01	228.70
834.32	228.69
834.64	228.65
834.96	228.63
835.27	228.62
835.59	228.55
835.90	228.51
836.22	228.50
836.53	228.45
836.85	228.43
837.16	228.60
837.48	228.61
837.79	228.67
838.11	228.66
838.42	228.65
838.74	228.66
839.05	228.64
839.37	228.64
839.68	228.51
840.00	228.51
840.31	228.53
840.63	228.50
840.94	228.48
841.26	228.47
841.57	228.47
841.88	228.49
842.20	228.47
842.51	228.45
842.83	228.45
843.14	228.60
843.46	228.59
843.77	228.49
844.08	228.48
844.40	228.42
844.71	228.41
845.03	228.40
845.34	228.39
845.65	228.39
845.97	228.40
846.28	228.40
846.60	228.41
846.91	228.38
847.22	228.38
847.54	228.41
847.85	228.42
848.16	228.40
848.48	228.35
848.79	228.42
849.10	228.43
849.42	228.43
849.73	228.26
850.04	228.25
850.36	228.19
850.67	228.21
850.98	228.20
851.30	228.21
851.61	228.21
851.92	228.21
852.23	228.25
852.55	228.25
852.86	228.25
853.17	228.26
853.49	228.28
853.80	228.32
854.11	228.33
854.42	228.35
854.74	228.33
855.05	228.34
855.36	228.25
855.67	228.26
855.99	228.26
856.30	228.47
856.61	228.46
856.92	228.46
857.23	228.47
857.55	228.45
857.86	228.43
858.17	228.45
858.48	228.42
858.79	228.39
859.11	228.40
859.42	228.38
859.73	228.36
860.04	228.35
860.35	228.28
860.66	228.25
860.98	228.23
861.29	228.25
861.60	228.25
861.91	228.28
862.22	228.25
862.53	228.22
862.84	228.01
863.16	228.06
863.47	228.03
863.78	228.00
864.09	228.01
864.40	228.03
864.71	228.02
865.02	228.05
865.33	228.02
865.64	227.99
865.95	227.98
866.27	228.10
866.58	228.09
866.89	228.12
867.20	228.11
867.51	228.07
867.82	228.07
868.13	228.12
868.44	228.08
868.75	228.11
869.06	228.12
869.37	228.13
869.68	228.08
869.99	228.12
870.30	228.14
870.61	228.16
870.92	228.14
871.23	228.12
871.54	228.13
871.85	228.17
872.16	228.19
872.47	228.17
872.78	228.06
873.09	228.07
873.40	228.06
873.71	228.08
874.02	228.10
874.33	228.08
874.64	228.02
874.95	228.06
875.26	228.03
875.56	228.02
875.87	228.01
876.18	228.00
876.49	228.16
876.80	228.14
877.11	228.11
877.42	228.11
877.73	228.13
878.04	228.11
878.35	228.11
878.66	228.12
878.96	228.13
879.27	228.12
879.58	228.11
879.89	228.09
880.20	228.14
880.51	228.13
880.82	228.13
881.12	228.16
881.43	228.12
881.74	228.09
882.05	228.07
882.36	228.09
882.67	228.11
882.97	227.92
883.28	227.91
883.59	227.90
883.90	227.91
884.21	227.93
884.51	227.91
884.82	227.88
885.13	227.88
885.44	227.87
885.74	227.87
886.05	227.86
886.36	227.86
886.67	227.79
886.98	227.87
887.28	227.89
887.59	227.88
887.90	227.88
888.20	227.88
888.51	227.91
888.82	227.87
889.13	227.88
889.43	228.04
889.74	228.03
890.05	228.03
890.35	228.00
890.66	227.97
890.97	227.97
891.28	227.95
891.58	227.95
891.89	227.95
892.20	227.94
892.50	227.92
892.81	227.91
893.12	227.92
893.42	227.83
893.73	227.84
894.04	227.83
894.34	227.84
894.65	227.84
894.95	227.82
895.26	227.84
895.57	227.92
895.87	227.74
896.18	227.77
896.48	227.79
896.79	227.78
897.10	227.81
897.40	227.81
897.71	227.82
898.01	227.80
898.32	227.82
898.63	227.82
898.93	227.84
899.24	227.84
899.54	227.82
899.85	227.82
900.15	227.80
900.46	227.81
900.76	227.82
901.07	227.83
901.38	227.82
901.68	227.84
901.99	227.75
902.29	227.76
902.60	227.75
902.90	227.73
903.21	227.73
903.51	227.71
903.82	227.74
904.12	227.75
904.43	227.77
904.73	227.75
905.03	227.76
905.34	227.93
905.64	227.92
905.95	227.93
906.25	227.92
906.56	227.92
906.86	227.92
907.17	227.89
907.47	227.90
907.77	227.89
908.08	227.85
908.38	227.86
908.69	227.87
908.99	227.89
909.30	227.89
909.60	227.89
909.90	227.89
910.21	227.84
910.51	227.81
910.81	227.81
911.12	227.83
911.42	227.81
911.73	227.63
912.03	227.63
912.33	227.67
912.64	227.66
912.94	227.65
913.24	227.63
913.55	227.62
913.85	227.61
914.15	227.65
914.46	227.66
914.76	227.65
915.06	227.64
915.37	227.61
915.67	227.60
915.97	227.61
916.27	227.59
916.58	227.60
916.88	227.61
917.18	227.59
917.49	227.70
917.79	227.71
918.09	227.74
918.39	227.78
918.70	227.77
919.00	227.78
919.30	227.86
919.60	227.85
919.91	227.82
920.21	227.83
920.51	227.79
920.81	227.79
921.12	227.82
921.42	227.82
921.72	227.84
922.02	227.85
922.32	227.88
922.63	227.87
922.93	227.97
923.23	227.96
923.53	227.94
923.83	227.82
924.13	227.83
924.44	227.82
924.74	227.85
925.04	227.88
925.34	227.88
925.64	227.80
925.94	227.79
926.24	227.90
926.55	227.89
926.85	227.90
927.15	227.90
927.45	227.89
927.75	227.88
928.05	227.88
928.35	227.87
928.65	227.90
928.95	227.91
929.26	227.82
929.56	227.85
929.86	227.88
930.16	227.87
930.46	227.84
930.76	227.84
931.06	227.75
931.36	227.70
931.66	227.73
931.96	227.75
932.26	227.77
932.56	227.69
932.86	227.70
933.16	227.70
933.46	227.68
933.76	227.66
934.06	227.69
934.36	227.74
934.66	227.74
934.96	227.71
935.26	227.72
935.56	227.75
935.86	227.70
936.16	227.67
936.46	227.66
936.76	227.66
937.06	227.63
937.36	227.65
937.66	227.66
937.96	227.65
938.26	227.61
938.56	227.59
938.86	227.59
939.16	227.63
939.46	227.64
939.76	227.67
940.06	227.65
940.35	227.62
940.65	227.52
940.95	227.53
941.25	227.49
941.55	227.46
941.85	227.44
942.15	227.48
942.45	227.54
942.75	227.53
943.04	227.55
943.34	227.58
943.64	227.56
943.94	227.54
944.24	227.54
944.54	227.55
944.84	227.55
945.13	227.53
945.43	227.49
945.73	227.48
946.03	227.46
946.33	227.46
946.62	227.44
946.92	227.46
947.22	227.46
947.52	227.48
947.82	227.51
948.11	227.50
948.41	227.45
948.71	227.40
949.01	227.42
949.31	227.40
949.60	227.40
949.90	227.43
950.20	227.42
950.50	227.42
950.79	227.41
951.09	227.44
951.39	227.43
951.69	227.43
951.98	227.47
952.28	227.48
952.58	227.47
952.87	227.47
953.17	227.49
953.47	227.48
953.76	227.48
954.06	227.44
954.36	227.41
954.66	227.42
954.95	227.47
955.25	227.48
955.55	227.50
955.84	227.47
956.14	227.48
956.44	227.50
956.73	227.49
957.03	227.49
957.32	227.51
957.62	227.51
957.92	227.54
958.21	227.52
958.51	227.73
958.81	227.76
959.10	227.78
959.40	227.82
959.69	227.83
959.99	227.85
960.29	227.86
960.58	227.87
960.88	227.94
961.17	227.91
961.47	227.94
961.76	227.92
962.06	227.94
962.36	227.92
962.65	227.92
962.95	227.93
963.24	227.91
963.54	227.90
963.83	227.92
964.13	227.89
964.42	227.87
964.72	227.71
965.01	227.71
965.31	227.70
965.60	227.65
965.90	227.76
966.19	227.72
966.49	227.73
966.78	227.71
967.08	227.70
967.37	227.71
967.67	227.66
967.96	227.68
968.26	227.68
968.55	227.71
968.85	227.69
969.14	227.69
969.43	227.70
969.73	227.67
970.02	227.65
970.32	227.64
970.61	227.61
970.91	227.57
971.20	227.55
971.49	227.52
971.79	227.54
972.08	227.41
972.38	227.42
972.67	227.41
972.96	227.43
973.26	227.38
973.55	227.43
973.85	227.43
974.14	227.42
974.43	227.44
974.73	227.39
975.02	227.38
975.31	227.37
975.61	227.37
975.90	227.36
976.19	227.34
976.49	227.35
976.78	227.37
977.07	227.37
977.37	227.39
977.66	227.42
977.95	227.39
978.24	227.41
978.54	227.45
978.83	227.43
979.12	227.43
979.42	227.44
979.71	227.40
980.00	227.40
980.29	227.41
980.59	227.37
980.88	227.41
981.17	227.42
981.46	227.43
981.76	227.43
982.05	227.48
982.34	227.50
982.63	227.49
982.93	227.48
983.22	227.51
983.51	227.52
983.80	227.54
984.09	227.56
984.39	227.55
984.68	227.53
984.97	227.53
985.26	227.52
985.55	227.53
985.85	227.49
986.14	227.52
986.43	227.53
986.72	227.53
987.01	227.48
987.30	227.48
987.59	227.47
987.89	227.48
988.18	227.44
988.47	227.42
988.76	227.42
989.05	227.40
989.34	227.38
989.63	227.42
989.92	227.40
990.22	227.38
990.51	227.37
990.80	227.36
991.09	227.38
991.38	227.39
991.67	227.38
991.96	227.38
992.25	227.37
992.54	227.33
992.83	227.34
993.12	227.33
993.41	227.35
993.70	227.42
993.99	227.45
994.28	227.47
994.58	227.51
994.87	227.50
995.16	227.50
995.45	227.49
995.74	227.42
996.03	227.45
996.32	227.48
996.61	227.52
996.90	227.51
997.19	227.50
997.48	227.52
997.77	227.50
998.06	227.51
998.34	227.50
998.63	227.51
998.92	227.52
999.21	227.56
999.50	227.55
999.79	227.49
1000.08	227.49
1000.37	227.49
1000.66	227.46
1000.95	227.49
1001.24	227.51
1001.53	227.53
1001.82	227.54
1002.11	227.49
1002.40	227.50
1002.68	227.53
1002.97	227.66
1003.26	227.63
1003.55	227.60
1003.84	227.62
1004.13	227.68
1004.42	227.66
1004.71	227.67
1004.99	227.65
1005.28	227.69
1005.57	227.67
1005.86	227.64
1006.15	227.62
1006.44	227.59
1006.72	227.62
1007.01	227.58
1007.30	227.58
1007.59	227.56
1007.88	227.55
1008.17	227.57
1008.45	227.53
1008.74	227.47
1009.03	227.38
1009.32	227.39
1009.60	227.39
1009.89	227.37
1010.18	227.30
1010.47	227.31
1010.76	227.31
1011.04	227.30
1011.33	227.29
1011.62	227.31
1011.91	227.32
1012.19	227.33
1012.48	227.33
1012.77	227.33
1013.05	227.40
1013.34	227.40
1013.63	227.39
1013.92	227.40
1014.20	227.39
1014.49	227.40
1014.78	227.41
1015.06	227.34
1015.35	227.35
1015.64	227.37
1015.92	227.40
1016.21	227.40
1016.50	227.40
1016.78	227.41
1017.07	227.43
1017.36	227.40
1017.64	227.37
1017.93	227.40
1018.22	227.39
1018.50	227.39
1018.79	227.39
1019.08	227.32
1019.36	227.33
1019.65	227.32
1019.93	227.36
1020.22	227.39
1020.51	227.48
1020.79	227.47
1021.08	227.30
1021.36	227.19
1021.65	227.44
1021.94	227.21
1022.22	227.58
1022.51	227.10
1022.79	228.10
1023.08	227.70
1023.36	229.53
1023.65	227.07
>>>>>End Processed Spectral Data<<<<<
