SpectraSuite Data File
++++++++++++++++++++++++++++++++++++
Date: Tue Oct 06 15:07:44 EDT 2015
User: lab3
Dark Spectrum Present: No
Reference Spectrum Present: No
Number of Sampled Component Spectra: 1
Spectrometers: USB2E7196
Integration Time (usec): 66000 (USB2E7196)
Spectra Averaged: 400 (USB2E7196)
Boxcar Smoothing: 10 (USB2E7196)
Correct for Electrical Dark: No (USB2E7196)
Strobe/Lamp Enabled: No (USB2E7196)
Correct for Detector Non-linearity: No (USB2E7196)
Correct for Stray Light: No (USB2E7196)
Number of Pixels in Processed Spectrum: 2048
>>>>>Begin Processed Spectral Data<<<<<
339.09	0.00
339.48	215.27
339.86	216.71
340.24	218.52
340.63	219.37
341.01	223.41
341.39	222.37
341.78	223.54
342.16	224.82
342.54	225.12
342.93	213.64
343.31	224.46
343.69	224.99
344.07	225.45
344.46	225.87
344.84	226.28
345.22	226.48
345.60	226.75
345.99	226.96
346.37	227.10
346.75	227.22
347.13	227.30
347.52	227.38
347.90	227.51
348.28	227.56
348.66	227.62
349.05	227.62
349.43	227.68
349.81	227.75
350.19	227.82
350.57	227.92
350.96	228.03
351.34	228.11
351.72	228.21
352.10	228.32
352.48	228.38
352.87	228.42
353.25	228.47
353.63	228.52
354.01	228.57
354.39	228.65
354.77	228.74
355.15	228.86
355.54	228.88
355.92	228.90
356.30	228.99
356.68	229.17
357.06	229.25
357.44	229.29
357.82	229.34
358.20	229.54
358.58	229.60
358.97	229.65
359.35	229.74
359.73	229.82
360.11	229.87
360.49	229.94
360.87	230.00
361.25	230.08
361.63	230.18
362.01	230.24
362.39	230.25
362.77	230.28
363.15	230.29
363.53	230.36
363.91	230.40
364.29	230.42
364.67	230.27
365.05	230.29
365.43	230.34
365.81	230.38
366.19	230.33
366.57	230.41
366.95	230.41
367.33	230.37
367.71	230.37
368.09	230.40
368.47	230.38
368.85	230.36
369.23	230.36
369.61	230.28
369.99	230.32
370.37	230.32
370.75	230.43
371.13	230.40
371.51	230.34
371.89	230.32
372.27	230.29
372.65	230.28
373.03	230.26
373.41	230.19
373.78	230.13
374.16	230.00
374.54	229.90
374.92	229.85
375.30	229.83
375.68	229.75
376.06	229.70
376.44	229.65
376.82	229.61
377.19	229.57
377.57	229.52
377.95	229.42
378.33	229.36
378.71	229.17
379.09	229.12
379.47	229.10
379.84	229.02
380.22	228.95
380.60	228.86
380.98	228.80
381.36	228.76
381.73	228.71
382.11	228.68
382.49	228.65
382.87	228.58
383.25	228.54
383.62	228.72
384.00	228.68
384.38	228.66
384.76	228.67
385.13	228.68
385.51	228.64
385.89	228.60
386.27	228.58
386.64	228.58
387.02	228.54
387.40	228.50
387.78	228.50
388.15	228.49
388.53	228.47
388.91	228.44
389.29	228.41
389.66	228.42
390.04	228.39
390.42	228.41
390.79	228.42
391.17	228.39
391.55	228.18
391.92	228.17
392.30	228.20
392.68	228.16
393.05	228.15
393.43	228.16
393.81	228.16
394.18	228.15
394.56	228.17
394.94	228.22
395.31	228.23
395.69	228.30
396.06	228.35
396.44	228.39
396.82	228.41
397.19	228.57
397.57	228.57
397.95	228.64
398.32	228.63
398.70	228.70
399.07	228.81
399.45	228.87
399.82	228.93
400.20	228.98
400.58	229.08
400.95	229.08
401.33	229.23
401.70	229.45
402.08	229.62
402.45	229.75
402.83	229.92
403.20	230.11
403.58	230.25
403.95	230.46
404.33	230.67
404.71	230.89
405.08	231.18
405.46	231.43
405.83	231.70
406.21	232.00
406.58	232.33
406.96	232.65
407.33	233.01
407.70	233.44
408.08	234.00
408.45	234.49
408.83	235.04
409.20	235.54
409.58	235.99
409.95	236.61
410.33	237.28
410.70	237.94
411.08	238.67
411.45	239.46
411.82	240.28
412.20	241.22
412.57	242.32
412.95	243.21
413.32	244.37
413.69	245.54
414.07	246.80
414.44	248.15
414.82	249.54
415.19	251.18
415.56	252.86
415.94	254.61
416.31	256.55
416.68	258.51
417.06	260.77
417.43	262.89
417.81	265.32
418.18	267.80
418.55	270.51
418.93	273.34
419.30	276.29
419.67	279.43
420.04	282.66
420.42	286.03
420.79	289.89
421.16	293.81
421.54	297.80
421.91	301.97
422.28	306.30
422.66	310.95
423.03	315.38
423.40	320.02
423.77	324.99
424.15	330.09
424.52	335.36
424.89	341.05
425.26	346.73
425.64	351.98
426.01	357.88
426.38	363.91
426.75	370.10
427.13	376.44
427.50	383.09
427.87	389.97
428.24	396.93
428.61	403.59
428.99	410.73
429.36	418.64
429.73	426.17
430.10	433.66
430.47	441.35
430.85	449.26
431.22	457.74
431.59	466.42
431.96	474.84
432.33	484.21
432.70	493.18
433.08	503.77
433.45	513.74
433.82	523.61
434.19	534.65
434.56	545.49
434.93	556.04
435.30	566.51
435.68	578.37
436.05	589.95
436.42	601.52
436.79	612.17
437.16	623.62
437.53	635.92
437.90	648.27
438.27	660.33
438.64	673.39
439.01	685.20
439.38	696.11
439.75	706.68
440.13	718.73
440.50	730.18
440.87	739.34
441.24	749.35
441.61	760.33
441.98	768.42
442.35	778.08
442.72	787.92
443.09	797.25
443.46	803.36
443.83	808.03
444.20	811.93
444.57	817.57
444.94	820.97
445.31	824.45
445.68	827.43
446.05	829.64
446.42	829.41
446.79	828.99
447.16	828.60
447.53	828.30
447.90	824.81
448.27	821.42
448.64	816.03
449.01	812.43
449.37	804.87
449.74	798.08
450.11	789.23
450.48	779.47
450.85	769.70
451.22	761.28
451.59	753.02
451.96	745.58
452.33	734.65
452.70	724.95
453.07	713.18
453.43	701.48
453.80	690.13
454.17	679.16
454.54	668.98
454.91	657.53
455.28	646.72
455.65	636.50
456.02	625.75
456.38	617.18
456.75	606.11
457.12	597.15
457.49	588.07
457.86	579.52
458.23	571.96
458.59	563.64
458.96	555.11
459.33	547.58
459.70	539.90
460.07	534.07
460.43	527.21
460.80	520.78
461.17	515.14
461.54	509.09
461.91	503.48
462.27	497.74
462.64	493.03
463.01	487.65
463.38	482.27
463.74	477.41
464.11	473.06
464.48	469.11
464.85	464.88
465.21	461.65
465.58	458.01
465.95	453.93
466.32	450.67
466.68	447.47
467.05	444.21
467.42	441.08
467.78	437.72
468.15	434.63
468.52	432.36
468.88	429.37
469.25	426.65
469.62	424.45
469.98	422.07
470.35	419.94
470.72	418.01
471.08	416.07
471.45	414.43
471.82	412.58
472.18	410.68
472.55	409.42
472.92	407.86
473.28	406.69
473.65	405.40
474.02	404.16
474.38	403.13
474.75	402.54
475.11	401.71
475.48	401.31
475.85	400.88
476.21	400.61
476.58	400.42
476.94	400.57
477.31	400.63
477.67	400.73
478.04	401.03
478.41	401.47
478.77	402.07
479.14	402.44
479.50	403.24
479.87	404.25
480.23	405.25
480.60	406.19
480.96	407.11
481.33	408.56
481.69	409.99
482.06	411.42
482.42	412.68
482.79	414.27
483.15	416.15
483.52	418.23
483.88	420.25
484.25	422.39
484.61	424.62
484.98	427.04
485.34	429.78
485.71	432.59
486.07	435.59
486.44	438.58
486.80	441.98
487.17	445.44
487.53	449.19
487.90	453.13
488.26	457.43
488.62	461.96
488.99	466.43
489.35	471.18
489.72	476.22
490.08	481.59
490.44	487.06
490.81	492.73
491.17	498.58
491.54	504.82
491.90	511.24
492.26	518.07
492.63	525.21
492.99	532.66
493.36	540.36
493.72	548.41
494.08	556.64
494.45	565.23
494.81	574.24
495.17	583.46
495.54	593.16
495.90	603.34
496.26	613.68
496.63	624.30
496.99	635.31
497.35	646.86
497.72	658.69
498.08	670.84
498.44	683.34
498.80	696.51
499.17	709.98
499.53	723.86
499.89	738.14
500.26	752.63
500.62	767.49
500.98	783.12
501.34	798.87
501.71	815.36
502.07	832.10
502.43	849.27
502.79	866.63
503.16	884.57
503.52	902.60
503.88	921.08
504.24	940.06
504.60	959.26
504.97	979.00
505.33	999.15
505.69	1020.36
506.05	1041.68
506.41	1062.92
506.78	1084.33
507.14	1106.35
507.50	1128.88
507.86	1151.81
508.22	1174.75
508.59	1197.53
508.95	1221.28
509.31	1245.55
509.67	1270.42
510.03	1295.26
510.39	1320.08
510.75	1344.96
511.12	1370.17
511.48	1395.46
511.84	1420.68
512.20	1446.08
512.56	1472.40
512.92	1498.72
513.28	1524.45
513.64	1550.56
514.00	1576.88
514.37	1603.51
514.73	1630.16
515.09	1655.92
515.45	1681.94
515.81	1708.24
516.17	1734.14
516.53	1759.50
516.89	1784.71
517.25	1810.05
517.61	1835.31
517.97	1860.95
518.33	1885.90
518.69	1910.86
519.05	1936.12
519.41	1961.45
519.77	1986.81
520.13	2010.90
520.49	2035.04
520.85	2059.38
521.21	2083.13
521.57	2107.20
521.93	2130.23
522.29	2153.93
522.65	2177.34
523.01	2200.59
523.37	2223.28
523.73	2246.63
524.09	2269.55
524.45	2292.03
524.81	2314.07
525.17	2335.60
525.53	2356.59
525.89	2378.08
526.25	2398.88
526.61	2418.38
526.97	2437.83
527.33	2457.09
527.68	2475.85
528.04	2494.12
528.40	2511.16
528.76	2528.52
529.12	2545.34
529.48	2562.66
529.84	2577.55
530.20	2592.97
530.56	2607.31
530.91	2621.72
531.27	2635.62
531.63	2648.68
531.99	2661.25
532.35	2673.35
532.71	2685.06
533.07	2697.18
533.42	2707.44
533.78	2718.00
534.14	2729.39
534.50	2739.68
534.86	2750.56
535.21	2759.26
535.57	2767.85
535.93	2776.47
536.29	2783.66
536.65	2790.59
537.00	2795.71
537.36	2801.73
537.72	2806.88
538.08	2811.51
538.44	2815.01
538.79	2818.46
539.15	2820.65
539.51	2822.68
539.87	2823.67
540.22	2822.88
540.58	2822.11
540.94	2822.16
541.29	2821.22
541.65	2818.61
542.01	2815.79
542.37	2811.43
542.72	2808.91
543.08	2804.68
543.44	2800.64
543.79	2795.55
544.15	2789.90
544.51	2784.94
544.87	2778.79
545.22	2771.81
545.58	2764.69
545.94	2757.96
546.29	2749.84
546.65	2741.69
547.01	2733.28
547.36	2725.27
547.72	2717.50
548.07	2708.35
548.43	2698.06
548.79	2687.48
549.14	2677.42
549.50	2667.51
549.86	2656.74
550.21	2644.24
550.57	2632.78
550.92	2619.48
551.28	2606.86
551.64	2594.69
551.99	2582.05
552.35	2569.25
552.70	2556.30
553.06	2543.97
553.41	2531.07
553.77	2517.55
554.13	2504.37
554.48	2490.29
554.84	2475.41
555.19	2461.46
555.55	2447.18
555.90	2433.11
556.26	2419.55
556.61	2404.94
556.97	2389.21
557.32	2373.75
557.68	2358.72
558.03	2343.43
558.39	2329.08
558.74	2315.26
559.10	2299.59
559.45	2284.43
559.81	2269.96
560.16	2255.20
560.52	2240.09
560.87	2225.22
561.23	2210.10
561.58	2195.28
561.94	2180.13
562.29	2164.69
562.64	2149.12
563.00	2133.79
563.35	2118.89
563.71	2103.49
564.06	2088.22
564.42	2073.40
564.77	2058.72
565.12	2043.99
565.48	2029.16
565.83	2014.54
566.19	2000.05
566.54	1985.72
566.89	1970.52
567.25	1955.13
567.60	1940.54
567.96	1925.39
568.31	1908.96
568.66	1893.44
569.02	1878.61
569.37	1864.21
569.72	1850.31
570.08	1836.08
570.43	1821.41
570.78	1806.41
571.14	1791.28
571.49	1776.25
571.84	1761.73
572.20	1746.24
572.55	1731.29
572.90	1716.23
573.26	1701.15
573.61	1685.32
573.96	1670.14
574.31	1655.13
574.67	1640.11
575.02	1624.74
575.37	1609.27
575.72	1594.47
576.08	1579.79
576.43	1564.44
576.78	1549.29
577.13	1534.11
577.49	1519.32
577.84	1504.85
578.19	1490.02
578.54	1475.17
578.90	1460.43
579.25	1445.51
579.60	1431.61
579.95	1417.48
580.30	1403.42
580.66	1389.12
581.01	1375.07
581.36	1361.09
581.71	1347.62
582.06	1334.07
582.42	1320.37
582.77	1307.27
583.12	1294.48
583.47	1281.38
583.82	1268.65
584.17	1255.53
584.53	1242.60
584.88	1229.83
585.23	1216.93
585.58	1204.37
585.93	1191.83
586.28	1180.13
586.63	1168.26
586.98	1156.13
587.34	1144.38
587.69	1132.40
588.04	1120.79
588.39	1109.46
588.74	1097.75
589.09	1086.28
589.44	1074.52
589.79	1063.37
590.14	1052.16
590.49	1041.04
590.84	1030.30
591.19	1019.63
591.54	1009.02
591.89	998.09
592.25	987.51
592.60	976.86
592.95	966.43
593.30	956.21
593.65	945.69
594.00	935.55
594.35	926.18
594.70	916.24
595.05	906.93
595.40	897.44
595.75	887.74
596.10	878.61
596.45	869.42
596.80	860.60
597.15	851.79
597.50	843.08
597.85	834.58
598.19	826.01
598.54	817.42
598.89	809.30
599.24	801.59
599.59	793.72
599.94	786.38
600.29	778.98
600.64	771.56
600.99	764.06
601.34	756.75
601.69	748.94
602.04	741.91
602.39	734.76
602.74	727.81
603.08	720.97
603.43	714.14
603.78	707.30
604.13	700.61
604.48	693.93
604.83	687.42
605.18	681.00
605.53	674.76
605.87	668.50
606.22	662.30
606.57	656.07
606.92	649.74
607.27	643.52
607.62	637.46
607.96	631.61
608.31	626.17
608.66	620.62
609.01	615.33
609.36	610.05
609.70	604.68
610.05	599.36
610.40	594.23
610.75	589.11
611.10	584.25
611.44	579.30
611.79	574.52
612.14	569.64
612.49	564.82
612.83	560.22
613.18	555.72
613.53	551.24
613.88	546.85
614.22	542.76
614.57	538.54
614.92	534.46
615.27	530.54
615.61	526.53
615.96	522.55
616.31	518.55
616.65	514.71
617.00	511.02
617.35	507.36
617.70	503.70
618.04	500.11
618.39	496.61
618.74	493.34
619.08	490.05
619.43	486.83
619.78	483.57
620.12	480.34
620.47	477.28
620.82	474.29
621.16	471.32
621.51	468.42
621.85	465.60
622.20	462.77
622.55	459.95
622.89	457.18
623.24	454.56
623.59	452.01
623.93	449.49
624.28	447.10
624.62	444.89
624.97	442.73
625.32	440.43
625.66	438.11
626.01	435.75
626.35	433.51
626.70	431.28
627.04	429.24
627.39	427.11
627.73	425.08
628.08	423.11
628.43	421.16
628.77	419.11
629.12	417.19
629.46	415.38
629.81	413.63
630.15	411.78
630.50	409.98
630.84	408.23
631.19	406.52
631.53	404.86
631.88	403.05
632.22	401.33
632.57	399.88
632.91	398.39
633.26	397.00
633.60	395.63
633.95	394.29
634.29	392.83
634.64	391.46
634.98	389.93
635.32	388.55
635.67	387.32
636.01	386.11
636.36	384.90
636.70	383.79
637.05	382.53
637.39	381.43
637.73	380.30
638.08	379.26
638.42	378.22
638.77	377.05
639.11	375.87
639.45	374.70
639.80	373.53
640.14	372.44
640.49	371.29
640.83	370.13
641.17	369.03
641.52	367.96
641.86	366.94
642.20	366.06
642.55	365.00
642.89	363.96
643.23	362.97
643.58	362.10
643.92	361.04
644.26	360.11
644.61	359.18
644.95	358.26
645.29	357.25
645.64	356.22
645.98	355.29
646.32	354.46
646.66	353.59
647.01	352.75
647.35	351.97
647.69	351.16
648.04	350.43
648.38	349.65
648.72	348.91
649.06	348.12
649.41	347.31
649.75	346.57
650.09	345.88
650.43	345.14
650.78	344.37
651.12	343.64
651.46	342.89
651.80	342.17
652.14	341.47
652.49	340.85
652.83	340.20
653.17	339.52
653.51	338.83
653.85	338.24
654.20	337.57
654.54	336.88
654.88	336.19
655.22	335.56
655.56	334.86
655.90	334.20
656.25	333.55
656.59	332.94
656.93	332.36
657.27	331.80
657.61	331.18
657.95	330.60
658.29	330.03
658.64	329.47
658.98	328.89
659.32	328.31
659.66	327.74
660.00	327.21
660.34	326.71
660.68	326.18
661.02	325.53
661.36	324.96
661.70	324.39
662.05	323.85
662.39	323.31
662.73	322.88
663.07	322.46
663.41	322.01
663.75	321.48
664.09	320.97
664.43	320.35
664.77	319.81
665.11	319.24
665.45	318.72
665.79	318.22
666.13	317.67
666.47	317.13
666.81	316.56
667.15	315.96
667.49	315.47
667.83	315.01
668.17	314.55
668.51	314.14
668.85	313.75
669.19	313.37
669.53	312.87
669.87	312.32
670.21	311.75
670.55	311.26
670.89	310.86
671.23	310.38
671.57	309.98
671.91	309.63
672.25	309.29
672.58	308.97
672.92	308.53
673.26	308.18
673.60	307.81
673.94	307.44
674.28	307.06
674.62	306.68
674.96	306.24
675.30	305.86
675.64	305.41
675.97	304.91
676.31	304.45
676.65	303.99
676.99	303.65
677.33	303.23
677.67	302.84
678.01	302.34
678.34	301.93
678.68	301.52
679.02	301.04
679.36	300.57
679.70	300.07
680.04	299.66
680.37	299.24
680.71	298.85
681.05	298.47
681.39	298.04
681.73	297.55
682.06	297.11
682.40	296.71
682.74	296.35
683.08	296.04
683.42	295.61
683.75	295.26
684.09	294.78
684.43	294.36
684.77	293.90
685.10	293.48
685.44	293.09
685.78	292.68
686.12	292.29
686.45	291.85
686.79	291.42
687.13	291.02
687.46	290.58
687.80	290.15
688.14	289.69
688.48	289.26
688.81	288.84
689.15	288.49
689.49	288.04
689.82	287.58
690.16	287.03
690.50	286.61
690.83	286.17
691.17	285.74
691.51	285.33
691.84	284.98
692.18	284.57
692.52	284.10
692.85	283.66
693.19	283.29
693.52	282.90
693.86	282.48
694.20	282.05
694.53	281.62
694.87	281.16
695.21	280.70
695.54	280.29
695.88	279.86
696.21	279.37
696.55	278.95
696.88	278.53
697.22	278.13
697.56	277.72
697.89	277.26
698.23	276.86
698.56	276.43
698.90	276.02
699.23	275.57
699.57	275.20
699.90	274.81
700.24	274.35
700.58	273.95
700.91	273.61
701.25	273.36
701.58	273.08
701.92	272.76
702.25	272.41
702.59	272.01
702.92	271.65
703.26	271.26
703.59	270.88
703.93	270.64
704.26	270.29
704.60	269.92
704.93	269.55
705.26	269.15
705.60	268.82
705.93	268.39
706.27	268.11
706.60	267.80
706.94	267.47
707.27	267.10
707.61	266.74
707.94	266.34
708.27	265.82
708.61	265.36
708.94	264.96
709.28	264.61
709.61	264.24
709.94	263.91
710.28	263.60
710.61	263.28
710.95	262.80
711.28	262.57
711.61	262.22
711.95	261.93
712.28	261.61
712.61	261.26
712.95	261.06
713.28	260.78
713.61	260.42
713.95	260.06
714.28	259.73
714.61	259.39
714.95	259.08
715.28	258.77
715.61	258.50
715.95	258.24
716.28	257.92
716.61	257.67
716.95	257.35
717.28	257.05
717.61	256.75
717.94	256.47
718.28	256.07
718.61	255.79
718.94	255.48
719.27	255.21
719.61	254.96
719.94	254.64
720.27	254.30
720.60	254.05
720.94	253.80
721.27	253.57
721.60	253.36
721.93	253.10
722.27	252.91
722.60	252.68
722.93	252.41
723.26	252.20
723.59	251.94
723.93	251.72
724.26	251.50
724.59	251.26
724.92	251.04
725.25	250.87
725.59	250.66
725.92	250.48
726.25	250.26
726.58	250.04
726.91	249.82
727.24	249.63
727.57	249.40
727.91	249.14
728.24	248.95
728.57	248.72
728.90	248.55
729.23	248.29
729.56	248.15
729.89	247.95
730.22	247.74
730.55	247.54
730.89	247.35
731.22	247.13
731.55	246.94
731.88	246.75
732.21	246.55
732.54	246.35
732.87	246.16
733.20	245.99
733.53	245.82
733.86	245.64
734.19	245.43
734.52	245.28
734.85	245.24
735.18	245.05
735.51	244.94
735.84	244.78
736.17	244.66
736.50	244.40
736.83	244.44
737.16	244.28
737.49	244.14
737.82	243.97
738.15	243.84
738.48	243.68
738.81	243.52
739.14	243.34
739.47	243.18
739.80	243.02
740.13	242.88
740.46	242.68
740.79	242.53
741.12	242.37
741.45	242.19
741.78	241.95
742.11	241.85
742.44	241.64
742.77	241.51
743.10	241.35
743.43	241.19
743.75	240.87
744.08	241.00
744.41	240.83
744.74	240.69
745.07	240.54
745.40	240.44
745.73	240.38
746.06	240.24
746.39	240.13
746.71	239.98
747.04	239.83
747.37	239.72
747.70	239.61
748.03	239.52
748.36	239.43
748.68	239.30
749.01	239.13
749.34	239.02
749.67	238.89
750.00	238.80
750.33	238.83
750.65	238.71
750.98	238.34
751.31	238.23
751.64	238.11
751.97	238.10
752.29	237.97
752.62	237.78
752.95	237.66
753.28	237.52
753.60	237.41
753.93	237.36
754.26	237.25
754.59	237.10
754.91	236.96
755.24	236.83
755.57	236.74
755.90	236.61
756.22	236.49
756.55	236.37
756.88	236.21
757.20	235.98
757.53	235.85
757.86	235.75
758.19	235.67
758.51	235.58
758.84	235.39
759.17	235.28
759.49	235.18
759.82	235.19
760.15	235.13
760.47	235.04
760.80	234.89
761.13	234.84
761.45	234.75
761.78	234.68
762.11	234.61
762.43	234.51
762.76	234.44
763.08	234.40
763.41	234.32
763.74	234.27
764.06	234.19
764.39	234.10
764.71	234.01
765.04	233.92
765.37	233.82
765.69	233.74
766.02	233.67
766.34	233.59
766.67	233.45
767.00	233.41
767.32	233.42
767.65	233.47
767.97	233.38
768.30	233.33
768.62	233.24
768.95	233.15
769.27	233.10
769.60	233.05
769.92	232.94
770.25	232.87
770.57	232.78
770.90	232.72
771.22	232.65
771.55	232.61
771.87	232.58
772.20	232.52
772.52	232.61
772.85	232.77
773.17	232.73
773.50	232.66
773.82	232.57
774.15	232.44
774.47	232.28
774.80	232.21
775.12	232.15
775.45	232.10
775.77	232.07
776.09	232.03
776.42	231.99
776.74	232.01
777.07	231.96
777.39	231.92
777.72	231.87
778.04	231.87
778.36	231.79
778.69	231.76
779.01	231.74
779.33	231.55
779.66	231.30
779.98	231.25
780.31	231.23
780.63	231.27
780.95	231.26
781.28	231.21
781.60	231.18
781.92	231.15
782.25	231.11
782.57	231.07
782.89	231.03
783.22	230.99
783.54	230.91
783.86	230.89
784.19	230.85
784.51	230.87
784.83	230.82
785.16	230.80
785.48	230.76
785.80	230.73
786.12	230.72
786.45	230.70
786.77	230.68
787.09	230.64
787.42	230.55
787.74	230.52
788.06	230.51
788.38	230.47
788.71	230.43
789.03	230.43
789.35	230.42
789.67	230.36
789.99	230.35
790.32	230.31
790.64	230.29
790.96	230.45
791.28	230.36
791.61	230.32
791.93	230.31
792.25	230.28
792.57	230.38
792.89	230.33
793.21	230.32
793.54	230.27
793.86	230.22
794.18	230.22
794.50	230.17
794.82	230.14
795.14	230.13
795.47	230.15
795.79	230.12
796.11	230.06
796.43	230.04
796.75	230.02
797.07	230.02
797.39	229.98
797.71	229.81
798.04	229.80
798.36	229.81
798.68	229.79
799.00	229.78
799.32	229.68
799.64	229.69
799.96	229.67
800.28	229.70
800.60	229.69
800.92	229.69
801.24	229.66
801.56	229.67
801.89	229.63
802.21	229.61
802.53	229.55
802.85	229.59
803.17	229.66
803.49	229.60
803.81	229.57
804.13	229.54
804.45	229.51
804.77	229.50
805.09	229.45
805.41	229.41
805.73	229.37
806.05	229.31
806.37	229.27
806.69	229.23
807.01	229.18
807.33	229.17
807.65	229.09
807.97	229.17
808.28	229.13
808.60	229.12
808.92	229.10
809.24	229.21
809.56	229.14
809.88	229.05
810.20	229.06
810.52	229.10
810.84	229.08
811.16	229.05
811.48	229.01
811.80	229.06
812.12	229.06
812.43	229.08
812.75	229.09
813.07	229.07
813.39	229.05
813.71	229.02
814.03	228.99
814.35	228.97
814.67	228.89
814.98	228.85
815.30	228.83
815.62	228.77
815.94	228.65
816.26	228.66
816.58	228.62
816.89	228.60
817.21	228.53
817.53	228.53
817.85	228.53
818.17	228.53
818.48	228.45
818.80	228.47
819.12	228.43
819.44	228.37
819.76	228.34
820.07	228.34
820.39	228.35
820.71	228.35
821.03	228.35
821.34	228.32
821.66	228.34
821.98	228.35
822.30	228.34
822.61	228.43
822.93	228.39
823.25	228.39
823.57	228.36
823.88	228.37
824.20	228.34
824.52	228.36
824.83	228.34
825.15	228.31
825.47	228.29
825.79	228.29
826.10	228.28
826.42	228.27
826.74	228.26
827.05	228.25
827.37	228.23
827.69	228.21
828.00	228.21
828.32	228.20
828.64	228.17
828.95	228.27
829.27	228.22
829.58	228.23
829.90	228.26
830.22	228.28
830.53	228.25
830.85	228.23
831.17	228.17
831.48	228.17
831.80	228.18
832.11	228.17
832.43	228.13
832.75	228.12
833.06	228.22
833.38	228.17
833.69	228.15
834.01	228.16
834.32	228.15
834.64	228.13
834.96	228.12
835.27	228.11
835.59	228.03
835.90	228.00
836.22	227.98
836.53	227.93
836.85	227.91
837.16	228.10
837.48	228.11
837.79	228.17
838.11	228.17
838.42	228.16
838.74	228.17
839.05	228.16
839.37	228.16
839.68	228.05
840.00	228.04
840.31	228.06
840.63	228.04
840.94	228.04
841.26	228.01
841.57	227.99
841.88	228.01
842.20	227.97
842.51	227.92
842.83	227.91
843.14	228.07
843.46	228.05
843.77	227.93
844.08	227.92
844.40	227.86
844.71	227.84
845.03	227.83
845.34	227.82
845.65	227.80
845.97	227.81
846.28	227.83
846.60	227.84
846.91	227.81
847.22	227.80
847.54	227.82
847.85	227.84
848.16	227.82
848.48	227.80
848.79	227.88
849.10	227.91
849.42	227.93
849.73	227.75
850.04	227.75
850.36	227.70
850.67	227.73
850.98	227.75
851.30	227.75
851.61	227.76
851.92	227.75
852.23	227.81
852.55	227.80
852.86	227.80
853.17	227.79
853.49	227.83
853.80	227.88
854.11	227.88
854.42	227.89
854.74	227.89
855.05	227.88
855.36	227.80
855.67	227.78
855.99	227.79
856.30	227.99
856.61	227.99
856.92	227.97
857.23	227.97
857.55	227.93
857.86	227.92
858.17	227.94
858.48	227.92
858.79	227.89
859.11	227.91
859.42	227.89
859.73	227.88
860.04	227.86
860.35	227.79
860.66	227.74
860.98	227.73
861.29	227.74
861.60	227.74
861.91	227.77
862.22	227.77
862.53	227.73
862.84	227.52
863.16	227.57
863.47	227.54
863.78	227.51
864.09	227.52
864.40	227.53
864.71	227.51
865.02	227.53
865.33	227.51
865.64	227.46
865.95	227.45
866.27	227.57
866.58	227.53
866.89	227.56
867.20	227.57
867.51	227.54
867.82	227.53
868.13	227.58
868.44	227.55
868.75	227.58
869.06	227.58
869.37	227.59
869.68	227.52
869.99	227.58
870.30	227.59
870.61	227.62
870.92	227.59
871.23	227.58
871.54	227.62
871.85	227.65
872.16	227.68
872.47	227.67
872.78	227.56
873.09	227.59
873.40	227.55
873.71	227.57
874.02	227.56
874.33	227.55
874.64	227.50
874.95	227.53
875.26	227.49
875.56	227.48
875.87	227.48
876.18	227.48
876.49	227.64
876.80	227.63
877.11	227.58
877.42	227.58
877.73	227.58
878.04	227.55
878.35	227.54
878.66	227.55
878.96	227.55
879.27	227.55
879.58	227.54
879.89	227.54
880.20	227.60
880.51	227.60
880.82	227.59
881.12	227.61
881.43	227.54
881.74	227.50
882.05	227.51
882.36	227.52
882.67	227.54
882.97	227.35
883.28	227.32
883.59	227.34
883.90	227.36
884.21	227.38
884.51	227.36
884.82	227.34
885.13	227.33
885.44	227.32
885.74	227.31
886.05	227.30
886.36	227.33
886.67	227.26
886.98	227.34
887.28	227.37
887.59	227.37
887.90	227.39
888.20	227.38
888.51	227.39
888.82	227.36
889.13	227.36
889.43	227.51
889.74	227.50
890.05	227.49
890.35	227.48
890.66	227.44
890.97	227.42
891.28	227.39
891.58	227.38
891.89	227.39
892.20	227.36
892.50	227.34
892.81	227.32
893.12	227.31
893.42	227.22
893.73	227.20
894.04	227.19
894.34	227.21
894.65	227.24
894.95	227.26
895.26	227.26
895.57	227.34
895.87	227.16
896.18	227.19
896.48	227.19
896.79	227.19
897.10	227.22
897.40	227.24
897.71	227.26
898.01	227.26
898.32	227.29
898.63	227.31
898.93	227.32
899.24	227.32
899.54	227.32
899.85	227.31
900.15	227.31
900.46	227.31
900.76	227.33
901.07	227.31
901.38	227.28
901.68	227.29
901.99	227.20
902.29	227.22
902.60	227.22
902.90	227.21
903.21	227.20
903.51	227.17
903.82	227.21
904.12	227.22
904.43	227.22
904.73	227.21
905.03	227.22
905.34	227.38
905.64	227.36
905.95	227.36
906.25	227.36
906.56	227.37
906.86	227.36
907.17	227.31
907.47	227.32
907.77	227.32
908.08	227.30
908.38	227.31
908.69	227.33
908.99	227.35
909.30	227.39
909.60	227.38
909.90	227.38
910.21	227.30
910.51	227.28
910.81	227.27
911.12	227.26
911.42	227.25
911.73	227.07
912.03	227.07
912.33	227.12
912.64	227.10
912.94	227.08
913.24	227.04
913.55	227.05
913.85	227.05
914.15	227.04
914.46	227.07
914.76	227.03
915.06	227.00
915.37	226.96
915.67	226.91
915.97	226.92
916.27	226.90
916.58	226.93
916.88	226.93
917.18	226.91
917.49	227.04
917.79	227.04
918.09	227.07
918.39	227.13
918.70	227.12
919.00	227.12
919.30	227.20
919.60	227.21
919.91	227.19
920.21	227.19
920.51	227.16
920.81	227.15
921.12	227.19
921.42	227.20
921.72	227.22
922.02	227.24
922.32	227.26
922.63	227.27
922.93	227.37
923.23	227.39
923.53	227.38
923.83	227.27
924.13	227.29
924.44	227.28
924.74	227.30
925.04	227.33
925.34	227.32
925.64	227.25
925.94	227.25
926.24	227.35
926.55	227.33
926.85	227.37
927.15	227.37
927.45	227.37
927.75	227.34
928.05	227.34
928.35	227.33
928.65	227.36
928.95	227.37
929.26	227.29
929.56	227.31
929.86	227.33
930.16	227.31
930.46	227.30
930.76	227.33
931.06	227.24
931.36	227.20
931.66	227.23
931.96	227.25
932.26	227.28
932.56	227.19
932.86	227.21
933.16	227.21
933.46	227.18
933.76	227.14
934.06	227.19
934.36	227.25
934.66	227.24
934.96	227.22
935.26	227.22
935.56	227.25
935.86	227.20
936.16	227.18
936.46	227.16
936.76	227.15
937.06	227.10
937.36	227.10
937.66	227.11
937.96	227.10
938.26	227.05
938.56	227.04
938.86	227.05
939.16	227.09
939.46	227.08
939.76	227.11
940.06	227.12
940.35	227.09
940.65	226.99
940.95	227.01
941.25	226.97
941.55	226.95
941.85	226.93
942.15	226.97
942.45	227.02
942.75	227.04
943.04	227.03
943.34	227.09
943.64	227.07
943.94	227.05
944.24	227.03
944.54	227.07
944.84	227.07
945.13	227.05
945.43	227.01
945.73	227.02
946.03	227.00
946.33	226.98
946.62	226.96
946.92	226.97
947.22	226.96
947.52	226.99
947.82	227.02
948.11	226.99
948.41	226.95
948.71	226.89
949.01	226.89
949.31	226.88
949.60	226.84
949.90	226.88
950.20	226.88
950.50	226.90
950.79	226.88
951.09	226.91
951.39	226.89
951.69	226.88
951.98	226.91
952.28	226.93
952.58	226.93
952.87	226.95
953.17	226.97
953.47	226.97
953.76	226.96
954.06	226.92
954.36	226.89
954.66	226.90
954.95	226.94
955.25	226.94
955.55	226.96
955.84	226.95
956.14	226.95
956.44	226.98
956.73	226.94
957.03	226.95
957.32	226.95
957.62	226.94
957.92	226.98
958.21	226.95
958.51	227.14
958.81	227.17
959.10	227.18
959.40	227.21
959.69	227.23
959.99	227.27
960.29	227.27
960.58	227.29
960.88	227.35
961.17	227.34
961.47	227.36
961.76	227.34
962.06	227.36
962.36	227.34
962.65	227.33
962.95	227.34
963.24	227.33
963.54	227.33
963.83	227.36
964.13	227.33
964.42	227.33
964.72	227.17
965.01	227.17
965.31	227.16
965.60	227.12
965.90	227.24
966.19	227.20
966.49	227.20
966.78	227.20
967.08	227.17
967.37	227.17
967.67	227.15
967.96	227.19
968.26	227.20
968.55	227.23
968.85	227.22
969.14	227.23
969.43	227.22
969.73	227.21
970.02	227.20
970.32	227.21
970.61	227.18
970.91	227.14
971.20	227.12
971.49	227.12
971.79	227.14
972.08	226.99
972.38	227.00
972.67	226.98
972.96	227.01
973.26	227.00
973.55	227.05
973.85	227.04
974.14	227.02
974.43	227.02
974.73	226.99
975.02	226.98
975.31	226.98
975.61	227.00
975.90	226.96
976.19	226.94
976.49	226.96
976.78	226.98
977.07	226.97
977.37	226.96
977.66	226.96
977.95	226.93
978.24	226.95
978.54	226.98
978.83	226.98
979.12	226.97
979.42	226.95
979.71	226.90
980.00	226.90
980.29	226.89
980.59	226.86
980.88	226.90
981.17	226.89
981.46	226.88
981.76	226.87
982.05	226.95
982.34	226.96
982.63	226.96
982.93	226.97
983.22	227.02
983.51	227.04
983.80	227.05
984.09	227.07
984.39	227.06
984.68	227.02
984.97	227.03
985.26	227.02
985.55	227.02
985.85	226.99
986.14	227.00
986.43	227.02
986.72	227.03
987.01	226.96
987.30	226.96
987.59	226.94
987.89	226.95
988.18	226.89
988.47	226.88
988.76	226.85
989.05	226.81
989.34	226.77
989.63	226.80
989.92	226.78
990.22	226.75
990.51	226.74
990.80	226.74
991.09	226.76
991.38	226.77
991.67	226.75
991.96	226.75
992.25	226.77
992.54	226.74
992.83	226.74
993.12	226.75
993.41	226.79
993.70	226.87
993.99	226.90
994.28	226.93
994.58	226.94
994.87	226.92
995.16	226.94
995.45	226.93
995.74	226.88
996.03	226.92
996.32	226.94
996.61	226.97
996.90	226.97
997.19	226.94
997.48	226.96
997.77	226.96
998.06	226.98
998.34	226.94
998.63	226.94
998.92	226.94
999.21	226.96
999.50	226.95
999.79	226.89
1000.08	226.89
1000.37	226.88
1000.66	226.88
1000.95	226.94
1001.24	226.96
1001.53	226.99
1001.82	226.97
1002.11	226.93
1002.40	226.95
1002.68	227.01
1002.97	227.12
1003.26	227.11
1003.55	227.08
1003.84	227.08
1004.13	227.12
1004.42	227.14
1004.71	227.14
1004.99	227.12
1005.28	227.16
1005.57	227.15
1005.86	227.14
1006.15	227.13
1006.44	227.11
1006.72	227.11
1007.01	227.08
1007.30	227.09
1007.59	227.07
1007.88	227.07
1008.17	227.08
1008.45	227.03
1008.74	226.95
1009.03	226.88
1009.32	226.89
1009.60	226.90
1009.89	226.89
1010.18	226.83
1010.47	226.82
1010.76	226.81
1011.04	226.82
1011.33	226.81
1011.62	226.82
1011.91	226.82
1012.19	226.83
1012.48	226.82
1012.77	226.82
1013.05	226.85
1013.34	226.83
1013.63	226.82
1013.92	226.83
1014.20	226.82
1014.49	226.83
1014.78	226.84
1015.06	226.78
1015.35	226.77
1015.64	226.79
1015.92	226.83
1016.21	226.84
1016.50	226.82
1016.78	226.86
1017.07	226.87
1017.36	226.83
1017.64	226.79
1017.93	226.80
1018.22	226.77
1018.50	226.78
1018.79	226.77
1019.08	226.72
1019.36	226.74
1019.65	226.73
1019.93	226.79
1020.22	226.81
1020.51	226.89
1020.79	226.87
1021.08	226.59
1021.36	226.63
1021.65	226.68
1021.94	226.72
1022.22	226.92
1022.51	226.58
1022.79	227.72
1023.08	227.10
1023.36	228.55
1023.65	226.31
>>>>>End Processed Spectral Data<<<<<
