SpectraSuite Data File
++++++++++++++++++++++++++++++++++++
Date: Tue Oct 06 11:36:20 EDT 2015
User: lab3
Dark Spectrum Present: No
Reference Spectrum Present: No
Number of Sampled Component Spectra: 1
Spectrometers: USB2E7196
Integration Time (usec): 66000 (USB2E7196)
Spectra Averaged: 1000 (USB2E7196)
Boxcar Smoothing: 10 (USB2E7196)
Correct for Electrical Dark: No (USB2E7196)
Strobe/Lamp Enabled: No (USB2E7196)
Correct for Detector Non-linearity: No (USB2E7196)
Correct for Stray Light: No (USB2E7196)
Number of Pixels in Processed Spectrum: 2048
>>>>>Begin Processed Spectral Data<<<<<
339.09	0.00
339.48	216.54
339.86	217.82
340.24	219.36
340.63	220.58
341.01	224.49
341.39	223.16
341.78	224.82
342.16	226.18
342.54	226.41
342.93	214.81
343.31	225.66
343.69	226.19
344.07	226.65
344.46	227.09
344.84	227.49
345.22	227.69
345.60	227.99
345.99	228.19
346.37	228.33
346.75	228.45
347.13	228.53
347.52	228.62
347.90	228.75
348.28	228.81
348.66	228.89
349.05	228.88
349.43	228.95
349.81	229.03
350.19	229.08
350.57	229.16
350.96	229.26
351.34	229.36
351.72	229.46
352.10	229.58
352.48	229.64
352.87	229.70
353.25	229.77
353.63	229.80
354.01	229.87
354.39	229.94
354.77	230.02
355.15	230.14
355.54	230.17
355.92	230.17
356.30	230.25
356.68	230.42
357.06	230.50
357.44	230.53
357.82	230.58
358.20	230.79
358.58	230.83
358.97	230.89
359.35	230.99
359.73	231.09
360.11	231.14
360.49	231.20
360.87	231.25
361.25	231.31
361.63	231.41
362.01	231.47
362.39	231.51
362.77	231.56
363.15	231.58
363.53	231.61
363.91	231.65
364.29	231.67
364.67	231.52
365.05	231.53
365.43	231.58
365.81	231.61
366.19	231.55
366.57	231.64
366.95	231.65
367.33	231.60
367.71	231.59
368.09	231.62
368.47	231.60
368.85	231.59
369.23	231.61
369.61	231.53
369.99	231.56
370.37	231.55
370.75	231.65
371.13	231.61
371.51	231.56
371.89	231.54
372.27	231.53
372.65	231.51
373.03	231.47
373.41	231.42
373.78	231.37
374.16	231.25
374.54	231.14
374.92	231.08
375.30	231.04
375.68	230.96
376.06	230.91
376.44	230.86
376.82	230.83
377.19	230.78
377.57	230.72
377.95	230.62
378.33	230.56
378.71	230.36
379.09	230.32
379.47	230.31
379.84	230.25
380.22	230.18
380.60	230.10
380.98	230.06
381.36	230.00
381.73	229.94
382.11	229.94
382.49	229.91
382.87	229.85
383.25	229.81
383.62	229.98
384.00	229.90
384.38	229.88
384.76	229.88
385.13	229.90
385.51	229.88
385.89	229.84
386.27	229.80
386.64	229.80
387.02	229.74
387.40	229.70
387.78	229.69
388.15	229.67
388.53	229.64
388.91	229.61
389.29	229.58
389.66	229.60
390.04	229.55
390.42	229.56
390.79	229.55
391.17	229.54
391.55	229.33
391.92	229.34
392.30	229.36
392.68	229.32
393.05	229.30
393.43	229.30
393.81	229.32
394.18	229.31
394.56	229.32
394.94	229.38
395.31	229.38
395.69	229.45
396.06	229.49
396.44	229.55
396.82	229.57
397.19	229.72
397.57	229.73
397.95	229.81
398.32	229.81
398.70	229.88
399.07	229.98
399.45	230.04
399.82	230.11
400.20	230.16
400.58	230.24
400.95	230.26
401.33	230.39
401.70	230.62
402.08	230.77
402.45	230.89
402.83	231.06
403.20	231.23
403.58	231.36
403.95	231.57
404.33	231.78
404.71	232.00
405.08	232.30
405.46	232.54
405.83	232.81
406.21	233.10
406.58	233.43
406.96	233.75
407.33	234.13
407.70	234.54
408.08	235.13
408.45	235.65
408.83	236.18
409.20	236.68
409.58	237.13
409.95	237.76
410.33	238.43
410.70	239.07
411.08	239.82
411.45	240.63
411.82	241.45
412.20	242.40
412.57	243.50
412.95	244.39
413.32	245.52
413.69	246.70
414.07	247.96
414.44	249.34
414.82	250.74
415.19	252.39
415.56	254.07
415.94	255.80
416.31	257.73
416.68	259.70
417.06	261.98
417.43	264.10
417.81	266.54
418.18	269.05
418.55	271.78
418.93	274.62
419.30	277.59
419.67	280.75
420.04	283.99
420.42	287.40
420.79	291.30
421.16	295.26
421.54	299.27
421.91	303.45
422.28	307.81
422.66	312.50
423.03	316.96
423.40	321.64
423.77	326.66
424.15	331.80
424.52	337.12
424.89	342.87
425.26	348.60
425.64	353.92
426.01	359.88
426.38	365.97
426.75	372.24
427.13	378.64
427.50	385.33
427.87	392.26
428.24	399.23
428.61	405.94
428.99	413.15
429.36	421.13
429.73	428.76
430.10	436.32
430.47	444.09
430.85	452.16
431.22	460.75
431.59	469.51
431.96	478.06
432.33	487.57
432.70	496.63
433.08	507.40
433.45	517.55
433.82	527.50
434.19	538.65
434.56	549.62
434.93	560.25
435.30	570.78
435.68	582.78
436.05	594.49
436.42	606.21
436.79	616.95
437.16	628.50
437.53	640.91
437.90	653.39
438.27	665.49
438.64	678.50
439.01	690.38
439.38	701.42
439.75	712.04
440.13	724.09
440.50	735.59
440.87	744.68
441.24	754.63
441.61	765.64
441.98	773.70
442.35	783.22
442.72	792.99
443.09	802.35
443.46	808.49
443.83	813.08
444.20	816.84
444.57	822.36
444.94	825.70
445.31	829.04
445.68	831.84
446.05	833.95
446.42	833.61
446.79	832.98
447.16	832.43
447.53	832.04
447.90	828.50
448.27	824.97
448.64	819.53
449.01	815.89
449.37	808.26
449.74	801.43
450.11	792.58
450.48	782.80
450.85	772.93
451.22	764.33
451.59	755.96
451.96	748.47
452.33	737.59
452.70	727.84
453.07	716.06
453.43	704.36
453.80	693.00
454.17	682.07
454.54	671.99
454.91	660.52
455.28	649.61
455.65	639.28
456.02	628.49
456.38	619.79
456.75	608.60
457.12	599.52
457.49	590.33
457.86	581.76
458.23	574.22
458.59	565.88
458.96	557.37
459.33	549.86
459.70	542.22
460.07	536.32
460.43	529.41
460.80	522.94
461.17	517.27
461.54	511.18
461.91	505.53
462.27	499.75
462.64	495.03
463.01	489.64
463.38	484.28
463.74	479.44
464.11	475.14
464.48	471.24
464.85	467.03
465.21	463.79
465.58	460.17
465.95	456.07
466.32	452.76
466.68	449.53
467.05	446.28
467.42	443.12
467.78	439.75
468.15	436.65
468.52	434.36
468.88	431.35
469.25	428.62
469.62	426.44
469.98	424.04
470.35	421.88
470.72	419.98
471.08	418.00
471.45	416.32
471.82	414.45
472.18	412.52
472.55	411.26
472.92	409.71
473.28	408.48
473.65	407.16
474.02	405.96
474.38	404.93
474.75	404.31
475.11	403.42
475.48	403.02
475.85	402.60
476.21	402.37
476.58	402.22
476.94	402.39
477.31	402.42
477.67	402.54
478.04	402.85
478.41	403.25
478.77	403.85
479.14	404.21
479.50	405.01
479.87	406.00
480.23	406.99
480.60	407.97
480.96	408.96
481.33	410.39
481.69	411.83
482.06	413.25
482.42	414.57
482.79	416.21
483.15	418.09
483.52	420.21
483.88	422.27
484.25	424.46
484.61	426.79
484.98	429.25
485.34	432.04
485.71	434.94
486.07	438.02
486.44	441.07
486.80	444.45
487.17	447.94
487.53	451.75
487.90	455.72
488.26	460.05
488.62	464.59
488.99	469.21
489.35	474.05
489.72	479.26
490.08	484.72
490.44	490.27
490.81	496.04
491.17	501.94
491.54	508.21
491.90	514.65
492.26	521.46
492.63	528.61
492.99	536.00
493.36	543.73
493.72	551.85
494.08	560.13
494.45	568.86
494.81	577.93
495.17	587.24
495.54	597.05
495.90	607.29
496.26	617.77
496.63	628.44
496.99	639.53
497.35	651.04
497.72	662.94
498.08	675.28
498.44	687.88
498.80	701.28
499.17	715.00
499.53	729.17
499.89	743.76
500.26	758.43
500.62	773.44
500.98	789.10
501.34	804.93
501.71	821.49
502.07	838.33
502.43	855.63
502.79	873.05
503.16	890.93
503.52	909.00
503.88	927.55
504.24	946.49
504.60	965.73
504.97	985.40
505.33	1005.51
505.69	1026.63
506.05	1047.80
506.41	1068.72
506.78	1090.01
507.14	1112.10
507.50	1134.59
507.86	1157.64
508.22	1180.75
508.59	1203.66
508.95	1227.35
509.31	1251.57
509.67	1276.28
510.03	1300.86
510.39	1325.68
510.75	1350.71
511.12	1375.90
511.48	1400.94
511.84	1426.12
512.20	1451.64
512.56	1477.74
512.92	1503.56
513.28	1528.89
513.64	1554.67
514.00	1580.50
514.37	1606.55
514.73	1632.44
515.09	1657.74
515.45	1683.17
515.81	1708.60
516.17	1734.11
516.53	1758.95
516.89	1783.79
517.25	1808.73
517.61	1833.57
517.97	1858.57
518.33	1882.80
518.69	1906.88
519.05	1931.20
519.41	1955.41
519.77	1979.46
520.13	2003.04
520.49	2026.60
520.85	2050.31
521.21	2073.52
521.57	2097.25
521.93	2119.75
522.29	2142.54
522.65	2164.87
523.01	2187.16
523.37	2208.61
523.73	2230.41
524.09	2252.34
524.45	2274.02
524.81	2294.87
525.17	2315.32
525.53	2335.21
525.89	2355.68
526.25	2375.35
526.61	2393.85
526.97	2412.56
527.33	2430.89
527.68	2448.14
528.04	2464.82
528.40	2480.37
528.76	2496.41
529.12	2511.24
529.48	2526.70
529.84	2540.86
530.20	2555.84
530.56	2569.61
530.91	2583.63
531.27	2596.65
531.63	2608.57
531.99	2619.84
532.35	2630.13
532.71	2640.15
533.07	2650.44
533.42	2659.09
533.78	2668.64
534.14	2678.65
534.50	2687.17
534.86	2695.65
535.21	2702.15
535.57	2709.09
535.93	2716.43
536.29	2722.42
536.65	2728.19
537.00	2731.98
537.36	2736.21
537.72	2738.91
538.08	2741.39
538.44	2742.72
538.79	2744.59
539.15	2745.67
539.51	2746.30
539.87	2746.93
540.22	2746.03
540.58	2745.51
540.94	2744.76
541.29	2742.77
541.65	2739.26
542.01	2735.83
542.37	2731.40
542.72	2728.80
543.08	2724.44
543.44	2719.96
543.79	2713.97
544.15	2707.87
544.51	2702.58
544.87	2695.33
545.22	2687.58
545.58	2679.79
545.94	2672.55
546.29	2663.72
546.65	2654.85
547.01	2645.97
547.36	2636.77
547.72	2627.56
548.07	2616.88
548.43	2606.06
548.79	2594.24
549.14	2583.21
549.50	2572.05
549.86	2560.43
550.21	2547.31
550.57	2535.33
550.92	2521.14
551.28	2508.08
551.64	2495.49
551.99	2482.66
552.35	2469.86
552.70	2457.10
553.06	2444.64
553.41	2431.34
553.77	2417.53
554.13	2403.60
554.48	2389.15
554.84	2374.53
555.19	2360.43
555.55	2345.91
555.90	2331.27
556.26	2317.59
556.61	2302.83
556.97	2287.33
557.32	2272.30
557.68	2257.21
558.03	2241.76
558.39	2227.33
558.74	2212.88
559.10	2196.70
559.45	2181.13
559.81	2166.40
560.16	2151.30
560.52	2135.92
560.87	2121.14
561.23	2105.89
561.58	2091.01
561.94	2075.47
562.29	2060.00
562.64	2044.49
563.00	2029.32
563.35	2014.76
563.71	1999.76
564.06	1984.85
564.42	1970.34
564.77	1955.66
565.12	1941.55
565.48	1927.30
565.83	1913.24
566.19	1899.09
566.54	1885.26
566.89	1870.26
567.25	1854.88
567.60	1840.62
567.96	1825.74
568.31	1810.32
568.66	1795.65
569.02	1781.17
569.37	1766.93
569.72	1752.91
570.08	1738.94
570.43	1724.68
570.78	1709.78
571.14	1694.92
571.49	1680.41
571.84	1666.69
572.20	1651.83
572.55	1637.15
572.90	1622.10
573.26	1606.91
573.61	1591.69
573.96	1577.16
574.31	1563.06
574.67	1549.31
575.02	1534.60
575.37	1519.84
575.72	1505.28
576.08	1491.08
576.43	1476.75
576.78	1462.53
577.13	1448.34
577.49	1434.35
577.84	1420.36
578.19	1406.42
578.54	1392.63
578.90	1378.85
579.25	1364.50
579.60	1351.15
579.95	1337.91
580.30	1324.56
580.66	1311.38
581.01	1298.39
581.36	1285.10
581.71	1271.87
582.06	1258.55
582.42	1245.44
582.77	1232.77
583.12	1220.26
583.47	1207.71
583.82	1195.42
584.17	1182.95
584.53	1170.78
584.88	1158.63
585.23	1146.48
585.58	1134.62
585.93	1122.90
586.28	1111.71
586.63	1100.45
586.98	1089.10
587.34	1078.03
587.69	1066.92
588.04	1056.09
588.39	1045.35
588.74	1034.42
589.09	1023.89
589.44	1013.12
589.79	1002.91
590.14	992.79
590.49	982.80
590.84	972.96
591.19	963.14
591.54	953.43
591.89	943.29
592.25	933.47
592.60	923.58
592.95	913.98
593.30	904.25
593.65	894.48
594.00	885.02
594.35	876.33
594.70	867.09
595.05	858.53
595.40	849.71
595.75	840.66
596.10	832.26
596.45	823.72
596.80	815.43
597.15	807.21
597.50	799.05
597.85	791.12
598.19	783.22
598.54	775.28
598.89	767.52
599.24	760.16
599.59	752.86
599.94	746.05
600.29	739.01
600.64	732.15
600.99	725.17
601.34	718.39
601.69	711.10
602.04	704.38
602.39	697.72
602.74	691.25
603.08	685.01
603.43	678.74
603.78	672.54
604.13	666.52
604.48	660.45
604.83	654.53
605.18	648.71
605.53	642.95
605.87	637.19
606.22	631.64
606.57	626.05
606.92	620.33
607.27	614.71
607.62	609.38
607.96	604.14
608.31	599.23
608.66	594.26
609.01	589.44
609.36	584.79
609.70	579.98
610.05	575.21
610.40	570.55
610.75	565.89
611.10	561.47
611.44	556.99
611.79	552.66
612.14	548.35
612.49	543.98
612.83	539.80
613.18	535.76
613.53	531.82
613.88	527.89
614.22	524.20
614.57	520.39
614.92	516.64
615.27	512.94
615.61	509.34
615.96	505.74
616.31	502.16
616.65	498.61
617.00	495.20
617.35	491.86
617.70	488.59
618.04	485.42
618.39	482.27
618.74	479.28
619.08	476.18
619.43	473.14
619.78	470.19
620.12	467.31
620.47	464.59
620.82	461.84
621.16	459.16
621.51	456.60
621.85	454.08
622.20	451.61
622.55	449.18
622.89	446.75
623.24	444.45
623.59	442.17
623.93	439.97
624.28	437.86
624.62	435.94
624.97	434.00
625.32	431.90
625.66	429.81
626.01	427.74
626.35	425.84
626.70	423.92
627.04	422.16
627.39	420.28
627.73	418.46
628.08	416.75
628.43	415.07
628.77	413.30
629.12	411.65
629.46	410.01
629.81	408.48
630.15	406.82
630.50	405.22
630.84	403.73
631.19	402.28
631.53	400.86
631.88	399.23
632.22	397.69
632.57	396.50
632.91	395.25
633.26	394.10
633.60	392.88
633.95	391.72
634.29	390.41
634.64	389.26
634.98	387.97
635.32	386.79
635.67	385.70
636.01	384.65
636.36	383.62
636.70	382.72
637.05	381.62
637.39	380.71
637.73	379.78
638.08	378.87
638.42	377.96
638.77	376.96
639.11	375.94
639.45	374.94
639.80	373.91
640.14	372.94
640.49	371.94
640.83	370.96
641.17	370.01
641.52	369.09
641.86	368.18
642.20	367.43
642.55	366.50
642.89	365.60
643.23	364.72
643.58	363.93
643.92	362.96
644.26	362.11
644.61	361.32
644.95	360.48
645.29	359.61
645.64	358.68
645.98	357.85
646.32	357.13
646.66	356.38
647.01	355.56
647.35	354.83
647.69	354.05
648.04	353.34
648.38	352.58
648.72	351.89
649.06	351.20
649.41	350.45
649.75	349.76
650.09	349.12
650.43	348.43
650.78	347.71
651.12	347.03
651.46	346.37
651.80	345.70
652.14	345.05
652.49	344.44
652.83	343.82
653.17	343.18
653.51	342.57
653.85	342.01
654.20	341.43
654.54	340.74
654.88	340.12
655.22	339.50
655.56	338.81
655.90	338.15
656.25	337.47
656.59	336.82
656.93	336.24
657.27	335.71
657.61	335.12
657.95	334.56
658.29	334.00
658.64	333.47
658.98	332.84
659.32	332.23
659.66	331.65
660.00	331.10
660.34	330.58
660.68	329.98
661.02	329.35
661.36	328.76
661.70	328.23
662.05	327.71
662.39	327.21
662.73	326.77
663.07	326.36
663.41	325.89
663.75	325.35
664.09	324.82
664.43	324.20
664.77	323.68
665.11	323.06
665.45	322.51
665.79	321.95
666.13	321.42
666.47	320.88
666.81	320.32
667.15	319.72
667.49	319.21
667.83	318.77
668.17	318.27
668.51	317.79
668.85	317.34
669.19	316.95
669.53	316.43
669.87	315.91
670.21	315.40
670.55	314.92
670.89	314.55
671.23	314.09
671.57	313.66
671.91	313.26
672.25	312.88
672.58	312.51
672.92	312.03
673.26	311.63
673.60	311.21
673.94	310.80
674.28	310.43
674.62	310.00
674.96	309.53
675.30	309.12
675.64	308.68
675.97	308.19
676.31	307.66
676.65	307.17
676.99	306.80
677.33	306.30
677.67	305.83
678.01	305.25
678.34	304.79
678.68	304.32
679.02	303.84
679.36	303.37
679.70	302.87
680.04	302.45
680.37	302.00
680.71	301.55
681.05	301.13
681.39	300.64
681.73	300.16
682.06	299.68
682.40	299.23
682.74	298.84
683.08	298.49
683.42	298.03
683.75	297.61
684.09	297.06
684.43	296.60
684.77	296.13
685.10	295.74
685.44	295.33
685.78	294.90
686.12	294.45
686.45	294.00
686.79	293.53
687.13	293.09
687.46	292.62
687.80	292.17
688.14	291.65
688.48	291.22
688.81	290.75
689.15	290.39
689.49	289.93
689.82	289.44
690.16	288.88
690.50	288.43
690.83	287.97
691.17	287.52
691.51	287.09
691.84	286.69
692.18	286.24
692.52	285.77
692.85	285.31
693.19	284.93
693.52	284.48
693.86	284.05
694.20	283.61
694.53	283.17
694.87	282.70
695.21	282.24
695.54	281.81
695.88	281.36
696.21	280.84
696.55	280.40
696.88	279.94
697.22	279.51
697.56	279.10
697.89	278.61
698.23	278.20
698.56	277.74
698.90	277.30
699.23	276.85
699.57	276.43
699.90	275.98
700.24	275.50
700.58	275.08
700.91	274.72
701.25	274.46
701.58	274.14
701.92	273.81
702.25	273.46
702.59	273.05
702.92	272.66
703.26	272.26
703.59	271.88
703.93	271.65
704.26	271.28
704.60	270.88
704.93	270.50
705.26	270.08
705.60	269.75
705.93	269.32
706.27	269.00
706.60	268.67
706.94	268.36
707.27	267.97
707.61	267.61
707.94	267.20
708.27	266.67
708.61	266.23
708.94	265.83
709.28	265.46
709.61	265.08
709.94	264.75
710.28	264.44
710.61	264.13
710.95	263.65
711.28	263.44
711.61	263.11
711.95	262.84
712.28	262.52
712.61	262.17
712.95	261.95
713.28	261.69
713.61	261.33
713.95	260.96
714.28	260.67
714.61	260.33
714.95	260.03
715.28	259.71
715.61	259.42
715.95	259.12
716.28	258.81
716.61	258.54
716.95	258.21
717.28	257.89
717.61	257.57
717.94	257.28
718.28	256.86
718.61	256.55
718.94	256.23
719.27	255.96
719.61	255.71
719.94	255.41
720.27	255.05
720.60	254.80
720.94	254.54
721.27	254.30
721.60	254.07
721.93	253.80
722.27	253.61
722.60	253.38
722.93	253.13
723.26	252.89
723.59	252.63
723.93	252.44
724.26	252.22
724.59	251.98
724.92	251.77
725.25	251.61
725.59	251.42
725.92	251.23
726.25	251.01
726.58	250.79
726.91	250.56
727.24	250.37
727.57	250.13
727.91	249.90
728.24	249.71
728.57	249.49
728.90	249.32
729.23	249.06
729.56	248.94
729.89	248.74
730.22	248.54
730.55	248.36
730.89	248.16
731.22	247.95
731.55	247.75
731.88	247.57
732.21	247.35
732.54	247.14
732.87	246.95
733.20	246.80
733.53	246.61
733.86	246.45
734.19	246.25
734.52	246.11
734.85	246.08
735.18	245.88
735.51	245.78
735.84	245.63
736.17	245.52
736.50	245.26
736.83	245.30
737.16	245.15
737.49	245.00
737.82	244.83
738.15	244.71
738.48	244.56
738.81	244.39
739.14	244.22
739.47	244.07
739.80	243.92
740.13	243.77
740.46	243.60
740.79	243.43
741.12	243.28
741.45	243.11
741.78	242.85
742.11	242.75
742.44	242.55
742.77	242.43
743.10	242.26
743.43	242.12
743.75	241.80
744.08	241.92
744.41	241.77
744.74	241.62
745.07	241.46
745.40	241.37
745.73	241.31
746.06	241.20
746.39	241.09
746.71	240.95
747.04	240.79
747.37	240.67
747.70	240.57
748.03	240.46
748.36	240.38
748.68	240.26
749.01	240.09
749.34	239.99
749.67	239.87
750.00	239.78
750.33	239.81
750.65	239.71
750.98	239.35
751.31	239.25
751.64	239.16
751.97	239.14
752.29	239.01
752.62	238.81
752.95	238.70
753.28	238.56
753.60	238.45
753.93	238.39
754.26	238.31
754.59	238.15
754.91	238.04
755.24	237.91
755.57	237.88
755.90	237.77
756.22	237.65
756.55	237.52
756.88	237.37
757.20	237.14
757.53	236.98
757.86	236.89
758.19	236.80
758.51	236.71
758.84	236.53
759.17	236.43
759.49	236.36
759.82	236.36
760.15	236.30
760.47	236.23
760.80	236.09
761.13	236.02
761.45	235.95
761.78	235.87
762.11	235.80
762.43	235.64
762.76	235.56
763.08	235.51
763.41	235.45
763.74	235.38
764.06	235.30
764.39	235.25
764.71	235.17
765.04	235.08
765.37	235.00
765.69	234.93
766.02	234.85
766.34	234.77
766.67	234.63
767.00	234.59
767.32	234.61
767.65	234.65
767.97	234.56
768.30	234.51
768.62	234.44
768.95	234.35
769.27	234.28
769.60	234.25
769.92	234.15
770.25	234.06
770.57	233.98
770.90	233.91
771.22	233.83
771.55	233.78
771.87	233.72
772.20	233.67
772.52	233.76
772.85	233.92
773.17	233.87
773.50	233.81
773.82	233.73
774.15	233.60
774.47	233.45
774.80	233.38
775.12	233.32
775.45	233.28
775.77	233.25
776.09	233.22
776.42	233.18
776.74	233.19
777.07	233.15
777.39	233.13
777.72	233.09
778.04	233.08
778.36	233.03
778.69	233.00
779.01	232.96
779.33	232.77
779.66	232.53
779.98	232.49
780.31	232.45
780.63	232.49
780.95	232.47
781.28	232.43
781.60	232.39
781.92	232.36
782.25	232.32
782.57	232.28
782.89	232.24
783.22	232.17
783.54	232.09
783.86	232.07
784.19	232.03
784.51	232.05
784.83	231.99
785.16	231.95
785.48	231.92
785.80	231.89
786.12	231.87
786.45	231.85
786.77	231.83
787.09	231.79
787.42	231.70
787.74	231.68
788.06	231.67
788.38	231.65
788.71	231.60
789.03	231.58
789.35	231.57
789.67	231.52
789.99	231.51
790.32	231.47
790.64	231.46
790.96	231.59
791.28	231.51
791.61	231.47
791.93	231.46
792.25	231.42
792.57	231.51
792.89	231.46
793.21	231.45
793.54	231.42
793.86	231.38
794.18	231.38
794.50	231.31
794.82	231.28
795.14	231.27
795.47	231.30
795.79	231.27
796.11	231.22
796.43	231.20
796.75	231.17
797.07	231.16
797.39	231.14
797.71	230.98
798.04	230.97
798.36	230.97
798.68	230.94
799.00	230.93
799.32	230.83
799.64	230.84
799.96	230.81
800.28	230.81
800.60	230.78
800.92	230.76
801.24	230.75
801.56	230.74
801.89	230.72
802.21	230.70
802.53	230.66
802.85	230.69
803.17	230.75
803.49	230.71
803.81	230.68
804.13	230.65
804.45	230.61
804.77	230.62
805.09	230.60
805.41	230.58
805.73	230.53
806.05	230.47
806.37	230.44
806.69	230.41
807.01	230.40
807.33	230.39
807.65	230.30
807.97	230.38
808.28	230.34
808.60	230.33
808.92	230.30
809.24	230.40
809.56	230.35
809.88	230.27
810.20	230.28
810.52	230.30
810.84	230.26
811.16	230.23
811.48	230.19
811.80	230.25
812.12	230.23
812.43	230.25
812.75	230.27
813.07	230.24
813.39	230.23
813.71	230.19
814.03	230.17
814.35	230.19
814.67	230.10
814.98	230.08
815.30	230.05
815.62	230.02
815.94	229.89
816.26	229.89
816.58	229.85
816.89	229.86
817.21	229.80
817.53	229.82
817.85	229.82
818.17	229.80
818.48	229.72
818.80	229.75
819.12	229.70
819.44	229.66
819.76	229.64
820.07	229.63
820.39	229.62
820.71	229.61
821.03	229.60
821.34	229.59
821.66	229.60
821.98	229.61
822.30	229.58
822.61	229.68
822.93	229.65
823.25	229.64
823.57	229.62
823.88	229.63
824.20	229.61
824.52	229.64
824.83	229.62
825.15	229.59
825.47	229.57
825.79	229.59
826.10	229.58
826.42	229.57
826.74	229.57
827.05	229.57
827.37	229.57
827.69	229.55
828.00	229.54
828.32	229.53
828.64	229.50
828.95	229.60
829.27	229.54
829.58	229.52
829.90	229.54
830.22	229.54
830.53	229.52
830.85	229.49
831.17	229.43
831.48	229.43
831.80	229.43
832.11	229.41
832.43	229.36
832.75	229.34
833.06	229.44
833.38	229.39
833.69	229.37
834.01	229.37
834.32	229.37
834.64	229.34
834.96	229.34
835.27	229.34
835.59	229.27
835.90	229.23
836.22	229.23
836.53	229.19
836.85	229.16
837.16	229.32
837.48	229.32
837.79	229.37
838.11	229.37
838.42	229.37
838.74	229.38
839.05	229.37
839.37	229.36
839.68	229.24
840.00	229.23
840.31	229.25
840.63	229.21
840.94	229.20
841.26	229.18
841.57	229.17
841.88	229.19
842.20	229.16
842.51	229.13
842.83	229.12
843.14	229.27
843.46	229.27
843.77	229.16
844.08	229.15
844.40	229.11
844.71	229.09
845.03	229.06
845.34	229.04
845.65	229.04
845.97	229.05
846.28	229.05
846.60	229.06
846.91	229.03
847.22	229.02
847.54	229.04
847.85	229.05
848.16	229.04
848.48	229.00
848.79	229.06
849.10	229.08
849.42	229.08
849.73	228.93
850.04	228.93
850.36	228.86
850.67	228.88
850.98	228.88
851.30	228.90
851.61	228.90
851.92	228.90
852.23	228.96
852.55	228.96
852.86	228.98
853.17	228.98
853.49	229.01
853.80	229.05
854.11	229.06
854.42	229.09
854.74	229.07
855.05	229.07
855.36	228.98
855.67	228.98
855.99	228.98
856.30	229.18
856.61	229.18
856.92	229.18
857.23	229.19
857.55	229.16
857.86	229.15
858.17	229.17
858.48	229.13
858.79	229.08
859.11	229.09
859.42	229.07
859.73	229.05
860.04	229.04
860.35	228.98
860.66	228.92
860.98	228.90
861.29	228.92
861.60	228.91
861.91	228.95
862.22	228.92
862.53	228.89
862.84	228.68
863.16	228.71
863.47	228.68
863.78	228.65
864.09	228.66
864.40	228.67
864.71	228.67
865.02	228.69
865.33	228.68
865.64	228.66
865.95	228.67
866.27	228.78
866.58	228.76
866.89	228.78
867.20	228.78
867.51	228.76
867.82	228.74
868.13	228.79
868.44	228.74
868.75	228.78
869.06	228.78
869.37	228.80
869.68	228.75
869.99	228.77
870.30	228.78
870.61	228.78
870.92	228.74
871.23	228.73
871.54	228.76
871.85	228.78
872.16	228.80
872.47	228.78
872.78	228.68
873.09	228.69
873.40	228.67
873.71	228.69
874.02	228.70
874.33	228.70
874.64	228.65
874.95	228.70
875.26	228.68
875.56	228.68
875.87	228.66
876.18	228.67
876.49	228.84
876.80	228.83
877.11	228.80
877.42	228.82
877.73	228.81
878.04	228.78
878.35	228.77
878.66	228.77
878.96	228.78
879.27	228.77
879.58	228.76
879.89	228.74
880.20	228.79
880.51	228.77
880.82	228.78
881.12	228.78
881.43	228.74
881.74	228.70
882.05	228.69
882.36	228.71
882.67	228.72
882.97	228.53
883.28	228.52
883.59	228.52
883.90	228.54
884.21	228.56
884.51	228.56
884.82	228.53
885.13	228.52
885.44	228.51
885.74	228.51
886.05	228.51
886.36	228.52
886.67	228.44
886.98	228.55
887.28	228.57
887.59	228.58
887.90	228.59
888.20	228.60
888.51	228.63
888.82	228.61
889.13	228.61
889.43	228.76
889.74	228.75
890.05	228.74
890.35	228.73
890.66	228.70
890.97	228.68
891.28	228.66
891.58	228.66
891.89	228.67
892.20	228.65
892.50	228.63
892.81	228.62
893.12	228.62
893.42	228.53
893.73	228.52
894.04	228.51
894.34	228.51
894.65	228.50
894.95	228.47
895.26	228.48
895.57	228.56
895.87	228.38
896.18	228.42
896.48	228.44
896.79	228.43
897.10	228.45
897.40	228.48
897.71	228.50
898.01	228.48
898.32	228.49
898.63	228.49
898.93	228.50
899.24	228.51
899.54	228.49
899.85	228.49
900.15	228.48
900.46	228.47
900.76	228.49
901.07	228.49
901.38	228.49
901.68	228.50
901.99	228.41
902.29	228.43
902.60	228.40
902.90	228.38
903.21	228.38
903.51	228.37
903.82	228.41
904.12	228.39
904.43	228.41
904.73	228.40
905.03	228.41
905.34	228.57
905.64	228.56
905.95	228.57
906.25	228.56
906.56	228.57
906.86	228.56
907.17	228.55
907.47	228.55
907.77	228.53
908.08	228.49
908.38	228.50
908.69	228.50
908.99	228.53
909.30	228.55
909.60	228.54
909.90	228.54
910.21	228.49
910.51	228.46
910.81	228.45
911.12	228.46
911.42	228.47
911.73	228.28
912.03	228.29
912.33	228.33
912.64	228.32
912.94	228.29
913.24	228.27
913.55	228.25
913.85	228.23
914.15	228.27
914.46	228.29
914.76	228.26
915.06	228.25
915.37	228.22
915.67	228.20
915.97	228.20
916.27	228.17
916.58	228.17
916.88	228.18
917.18	228.17
917.49	228.29
917.79	228.28
918.09	228.30
918.39	228.34
918.70	228.32
919.00	228.33
919.30	228.41
919.60	228.41
919.91	228.38
920.21	228.40
920.51	228.35
920.81	228.35
921.12	228.39
921.42	228.39
921.72	228.40
922.02	228.41
922.32	228.44
922.63	228.46
922.93	228.56
923.23	228.56
923.53	228.53
923.83	228.42
924.13	228.45
924.44	228.44
924.74	228.46
925.04	228.50
925.34	228.50
925.64	228.43
925.94	228.44
926.24	228.55
926.55	228.53
926.85	228.56
927.15	228.55
927.45	228.55
927.75	228.54
928.05	228.55
928.35	228.53
928.65	228.55
928.95	228.56
929.26	228.48
929.56	228.52
929.86	228.55
930.16	228.54
930.46	228.52
930.76	228.53
931.06	228.45
931.36	228.40
931.66	228.43
931.96	228.45
932.26	228.44
932.56	228.37
932.86	228.39
933.16	228.39
933.46	228.37
933.76	228.35
934.06	228.39
934.36	228.45
934.66	228.44
934.96	228.42
935.26	228.42
935.56	228.45
935.86	228.40
936.16	228.37
936.46	228.36
936.76	228.36
937.06	228.32
937.36	228.36
937.66	228.37
937.96	228.36
938.26	228.33
938.56	228.33
938.86	228.33
939.16	228.37
939.46	228.38
939.76	228.39
940.06	228.39
940.35	228.36
940.65	228.25
940.95	228.28
941.25	228.24
941.55	228.22
941.85	228.20
942.15	228.24
942.45	228.29
942.75	228.27
943.04	228.28
943.34	228.32
943.64	228.30
943.94	228.28
944.24	228.28
944.54	228.30
944.84	228.29
945.13	228.27
945.43	228.23
945.73	228.22
946.03	228.20
946.33	228.18
946.62	228.16
946.92	228.16
947.22	228.17
947.52	228.18
947.82	228.21
948.11	228.18
948.41	228.15
948.71	228.11
949.01	228.11
949.31	228.11
949.60	228.09
949.90	228.12
950.20	228.11
950.50	228.09
950.79	228.07
951.09	228.10
951.39	228.09
951.69	228.07
951.98	228.11
952.28	228.12
952.58	228.12
952.87	228.12
953.17	228.15
953.47	228.12
953.76	228.11
954.06	228.08
954.36	228.06
954.66	228.05
954.95	228.10
955.25	228.11
955.55	228.13
955.84	228.09
956.14	228.09
956.44	228.10
956.73	228.08
957.03	228.09
957.32	228.09
957.62	228.09
957.92	228.13
958.21	228.11
958.51	228.30
958.81	228.33
959.10	228.35
959.40	228.39
959.69	228.41
959.99	228.43
960.29	228.44
960.58	228.44
960.88	228.50
961.17	228.48
961.47	228.50
961.76	228.47
962.06	228.50
962.36	228.48
962.65	228.50
962.95	228.51
963.24	228.50
963.54	228.50
963.83	228.52
964.13	228.50
964.42	228.48
964.72	228.33
965.01	228.34
965.31	228.32
965.60	228.28
965.90	228.40
966.19	228.36
966.49	228.37
966.78	228.36
967.08	228.36
967.37	228.35
967.67	228.32
967.96	228.36
968.26	228.37
968.55	228.39
968.85	228.37
969.14	228.37
969.43	228.38
969.73	228.36
970.02	228.35
970.32	228.35
970.61	228.33
970.91	228.28
971.20	228.25
971.49	228.25
971.79	228.26
972.08	228.13
972.38	228.16
972.67	228.14
972.96	228.17
973.26	228.12
973.55	228.18
973.85	228.18
974.14	228.16
974.43	228.16
974.73	228.13
975.02	228.12
975.31	228.11
975.61	228.11
975.90	228.09
976.19	228.08
976.49	228.08
976.78	228.10
977.07	228.10
977.37	228.11
977.66	228.13
977.95	228.10
978.24	228.12
978.54	228.14
978.83	228.14
979.12	228.12
979.42	228.13
979.71	228.10
980.00	228.09
980.29	228.09
980.59	228.05
980.88	228.10
981.17	228.10
981.46	228.11
981.76	228.11
982.05	228.16
982.34	228.17
982.63	228.17
982.93	228.17
983.22	228.22
983.51	228.23
983.80	228.26
984.09	228.27
984.39	228.26
984.68	228.23
984.97	228.24
985.26	228.22
985.55	228.24
985.85	228.19
986.14	228.23
986.43	228.25
986.72	228.26
987.01	228.20
987.30	228.20
987.59	228.19
987.89	228.20
988.18	228.14
988.47	228.14
988.76	228.12
989.05	228.10
989.34	228.06
989.63	228.12
989.92	228.09
990.22	228.08
990.51	228.08
990.80	228.07
991.09	228.08
991.38	228.11
991.67	228.09
991.96	228.08
992.25	228.09
992.54	228.06
992.83	228.06
993.12	228.05
993.41	228.09
993.70	228.15
993.99	228.18
994.28	228.21
994.58	228.25
994.87	228.24
995.16	228.24
995.45	228.23
995.74	228.16
996.03	228.19
996.32	228.21
996.61	228.25
996.90	228.24
997.19	228.23
997.48	228.22
997.77	228.21
998.06	228.22
998.34	228.20
998.63	228.19
998.92	228.20
999.21	228.23
999.50	228.23
999.79	228.17
1000.08	228.14
1000.37	228.14
1000.66	228.10
1000.95	228.16
1001.24	228.16
1001.53	228.19
1001.82	228.18
1002.11	228.15
1002.40	228.16
1002.68	228.20
1002.97	228.33
1003.26	228.32
1003.55	228.31
1003.84	228.32
1004.13	228.39
1004.42	228.37
1004.71	228.38
1004.99	228.36
1005.28	228.41
1005.57	228.40
1005.86	228.39
1006.15	228.39
1006.44	228.36
1006.72	228.39
1007.01	228.35
1007.30	228.35
1007.59	228.33
1007.88	228.33
1008.17	228.33
1008.45	228.30
1008.74	228.23
1009.03	228.15
1009.32	228.15
1009.60	228.16
1009.89	228.13
1010.18	228.06
1010.47	228.05
1010.76	228.05
1011.04	228.05
1011.33	228.04
1011.62	228.05
1011.91	228.06
1012.19	228.06
1012.48	228.07
1012.77	228.07
1013.05	228.13
1013.34	228.13
1013.63	228.12
1013.92	228.13
1014.20	228.11
1014.49	228.13
1014.78	228.14
1015.06	228.08
1015.35	228.07
1015.64	228.09
1015.92	228.12
1016.21	228.13
1016.50	228.14
1016.78	228.16
1017.07	228.16
1017.36	228.14
1017.64	228.10
1017.93	228.11
1018.22	228.10
1018.50	228.09
1018.79	228.08
1019.08	228.02
1019.36	228.03
1019.65	228.01
1019.93	228.06
1020.22	228.10
1020.51	228.18
1020.79	228.17
1021.08	227.76
1021.36	227.78
1021.65	228.08
1021.94	228.00
1022.22	228.23
1022.51	227.58
1022.79	229.10
1023.08	228.44
1023.36	230.25
1023.65	227.67
>>>>>End Processed Spectral Data<<<<<
