SpectraSuite Data File
++++++++++++++++++++++++++++++++++++
Date: Tue Oct 06 14:04:53 EDT 2015
User: lab3
Dark Spectrum Present: No
Reference Spectrum Present: No
Number of Sampled Component Spectra: 1
Spectrometers: USB2E7196
Integration Time (usec): 66000 (USB2E7196)
Spectra Averaged: 1000 (USB2E7196)
Boxcar Smoothing: 10 (USB2E7196)
Correct for Electrical Dark: No (USB2E7196)
Strobe/Lamp Enabled: No (USB2E7196)
Correct for Detector Non-linearity: No (USB2E7196)
Correct for Stray Light: No (USB2E7196)
Number of Pixels in Processed Spectrum: 2048
>>>>>Begin Processed Spectral Data<<<<<
339.09	0.00
339.48	215.50
339.86	216.78
340.24	218.31
340.63	219.80
341.01	223.86
341.39	222.54
341.78	223.94
342.16	225.42
342.54	225.57
342.93	214.00
343.31	224.81
343.69	225.36
344.07	225.83
344.46	226.28
344.84	226.69
345.22	226.88
345.60	227.15
345.99	227.35
346.37	227.49
346.75	227.60
347.13	227.69
347.52	227.78
347.90	227.91
348.28	227.96
348.66	228.05
349.05	228.03
349.43	228.11
349.81	228.18
350.19	228.24
350.57	228.32
350.96	228.42
351.34	228.52
351.72	228.63
352.10	228.74
352.48	228.81
352.87	228.86
353.25	228.93
353.63	228.98
354.01	229.05
354.39	229.13
354.77	229.21
355.15	229.32
355.54	229.35
355.92	229.36
356.30	229.43
356.68	229.61
357.06	229.68
357.44	229.71
357.82	229.78
358.20	229.99
358.58	230.04
358.97	230.10
359.35	230.20
359.73	230.28
360.11	230.34
360.49	230.40
360.87	230.44
361.25	230.51
361.63	230.62
362.01	230.66
362.39	230.68
362.77	230.74
363.15	230.74
363.53	230.77
363.91	230.82
364.29	230.84
364.67	230.69
365.05	230.71
365.43	230.75
365.81	230.78
366.19	230.72
366.57	230.80
366.95	230.80
367.33	230.75
367.71	230.74
368.09	230.78
368.47	230.78
368.85	230.76
369.23	230.78
369.61	230.70
369.99	230.74
370.37	230.76
370.75	230.86
371.13	230.83
371.51	230.80
371.89	230.77
372.27	230.75
372.65	230.75
373.03	230.72
373.41	230.68
373.78	230.63
374.16	230.50
374.54	230.39
374.92	230.33
375.30	230.29
375.68	230.21
376.06	230.17
376.44	230.11
376.82	230.09
377.19	230.03
377.57	229.98
377.95	229.87
378.33	229.80
378.71	229.60
379.09	229.57
379.47	229.55
379.84	229.48
380.22	229.41
380.60	229.33
380.98	229.28
381.36	229.23
381.73	229.16
382.11	229.16
382.49	229.15
382.87	229.08
383.25	229.04
383.62	229.21
384.00	229.13
384.38	229.09
384.76	229.08
385.13	229.09
385.51	229.06
385.89	229.00
386.27	228.98
386.64	228.97
387.02	228.91
387.40	228.86
387.78	228.85
388.15	228.83
388.53	228.80
388.91	228.78
389.29	228.75
389.66	228.76
390.04	228.72
390.42	228.72
390.79	228.73
391.17	228.70
391.55	228.50
391.92	228.50
392.30	228.53
392.68	228.48
393.05	228.47
393.43	228.48
393.81	228.51
394.18	228.48
394.56	228.50
394.94	228.57
395.31	228.56
395.69	228.63
396.06	228.68
396.44	228.72
396.82	228.75
397.19	228.87
397.57	228.88
397.95	228.95
398.32	228.95
398.70	229.02
399.07	229.11
399.45	229.16
399.82	229.24
400.20	229.29
400.58	229.38
400.95	229.40
401.33	229.52
401.70	229.76
402.08	229.91
402.45	230.03
402.83	230.18
403.20	230.36
403.58	230.50
403.95	230.70
404.33	230.93
404.71	231.14
405.08	231.46
405.46	231.72
405.83	231.99
406.21	232.29
406.58	232.60
406.96	232.93
407.33	233.33
407.70	233.74
408.08	234.32
408.45	234.82
408.83	235.36
409.20	235.86
409.58	236.32
409.95	236.94
410.33	237.62
410.70	238.27
411.08	239.02
411.45	239.82
411.82	240.64
412.20	241.57
412.57	242.66
412.95	243.54
413.32	244.67
413.69	245.83
414.07	247.08
414.44	248.45
414.82	249.85
415.19	251.46
415.56	253.13
415.94	254.85
416.31	256.79
416.68	258.73
417.06	260.98
417.43	263.08
417.81	265.50
418.18	267.98
418.55	270.67
418.93	273.49
419.30	276.42
419.67	279.53
420.04	282.76
420.42	286.14
420.79	290.01
421.16	293.93
421.54	297.91
421.91	302.05
422.28	306.33
422.66	310.95
423.03	315.34
423.40	319.96
423.77	324.89
424.15	329.94
424.52	335.18
424.89	340.84
425.26	346.47
425.64	351.68
426.01	357.53
426.38	363.54
426.75	369.68
427.13	375.96
427.50	382.54
427.87	389.32
428.24	396.13
428.61	402.68
428.99	409.74
429.36	417.51
429.73	424.95
430.10	432.37
430.47	439.95
430.85	447.83
431.22	456.18
431.59	464.73
431.96	473.08
432.33	482.38
432.70	491.26
433.08	501.78
433.45	511.71
433.82	521.44
434.19	532.35
434.56	543.07
434.93	553.47
435.30	563.80
435.68	575.53
436.05	586.98
436.42	598.44
436.79	608.90
437.16	620.24
437.53	632.42
437.90	644.62
438.27	656.54
438.64	669.33
439.01	680.99
439.38	691.81
439.75	702.24
440.13	714.09
440.50	725.35
440.87	734.27
441.24	744.09
441.61	754.91
441.98	762.84
442.35	772.22
442.72	781.86
443.09	791.13
443.46	797.28
443.83	801.86
444.20	805.61
444.57	811.16
444.94	814.56
445.31	817.94
445.68	820.86
446.05	823.06
446.42	822.86
446.79	822.45
447.16	822.06
447.53	821.84
447.90	818.50
448.27	815.22
448.64	810.06
449.01	806.67
449.37	799.37
449.74	792.83
450.11	784.32
450.48	774.85
450.85	765.27
451.22	756.92
451.59	748.87
451.96	741.71
452.33	731.13
452.70	721.65
453.07	710.20
453.43	698.75
453.80	687.63
454.17	676.98
454.54	667.05
454.91	655.81
455.28	645.14
455.65	635.05
456.02	624.41
456.38	615.87
456.75	604.77
457.12	595.82
457.49	586.78
457.86	578.27
458.23	570.80
458.59	562.52
458.96	554.07
459.33	546.62
459.70	539.01
460.07	533.14
460.43	526.24
460.80	519.77
461.17	514.13
461.54	508.08
461.91	502.42
462.27	496.68
462.64	491.99
463.01	486.61
463.38	481.25
463.74	476.43
464.11	472.15
464.48	468.32
464.85	464.14
465.21	460.89
465.58	457.30
465.95	453.25
466.32	450.01
466.68	446.82
467.05	443.60
467.42	440.48
467.78	437.13
468.15	434.07
468.52	431.82
468.88	428.86
469.25	426.17
469.62	424.01
469.98	421.64
470.35	419.52
470.72	417.63
471.08	415.68
471.45	414.04
471.82	412.20
472.18	410.27
472.55	409.02
472.92	407.51
473.28	406.29
473.65	404.98
474.02	403.78
474.38	402.75
474.75	402.11
475.11	401.23
475.48	400.80
475.85	400.37
476.21	400.11
476.58	399.93
476.94	400.09
477.31	400.12
477.67	400.25
478.04	400.55
478.41	400.93
478.77	401.52
479.14	401.86
479.50	402.62
479.87	403.58
480.23	404.55
480.60	405.48
480.96	406.43
481.33	407.84
481.69	409.21
482.06	410.59
482.42	411.89
482.79	413.46
483.15	415.34
483.52	417.44
483.88	419.44
484.25	421.60
484.61	423.82
484.98	426.21
485.34	428.90
485.71	431.70
486.07	434.69
486.44	437.60
486.80	440.93
487.17	444.33
487.53	448.02
487.90	451.87
488.26	456.09
488.62	460.52
488.99	464.97
489.35	469.68
489.72	474.76
490.08	480.06
490.44	485.49
490.81	491.07
491.17	496.78
491.54	502.90
491.90	509.15
492.26	515.82
492.63	522.83
492.99	530.08
493.36	537.61
493.72	545.55
494.08	553.63
494.45	562.10
494.81	570.97
495.17	580.06
495.54	589.66
495.90	599.65
496.26	609.91
496.63	620.38
496.99	631.22
497.35	642.45
497.72	654.08
498.08	666.13
498.44	678.47
498.80	691.61
499.17	705.07
499.53	718.96
499.89	733.22
500.26	747.56
500.62	762.20
500.98	777.52
501.34	793.04
501.71	809.29
502.07	825.82
502.43	842.77
502.79	859.84
503.16	877.39
503.52	895.19
503.88	913.44
504.24	932.20
504.60	951.15
504.97	970.58
505.33	990.43
505.69	1011.27
506.05	1032.13
506.41	1052.85
506.78	1073.91
507.14	1095.73
507.50	1118.08
507.86	1140.82
508.22	1163.71
508.59	1186.44
508.95	1210.01
509.31	1233.97
509.67	1258.59
510.03	1283.10
510.39	1308.05
510.75	1332.99
511.12	1357.99
511.48	1383.02
511.84	1408.06
512.20	1433.58
512.56	1459.59
512.92	1485.33
513.28	1510.79
513.64	1536.60
514.00	1562.58
514.37	1588.70
514.73	1614.55
515.09	1639.85
515.45	1665.45
515.81	1691.09
516.17	1716.77
516.53	1741.80
516.89	1766.77
517.25	1791.83
517.61	1816.76
517.97	1841.81
518.33	1866.51
518.69	1891.11
519.05	1915.87
519.41	1940.57
519.77	1965.19
520.13	1989.48
520.49	2013.67
520.85	2037.75
521.21	2061.73
521.57	2085.87
521.93	2108.89
522.29	2132.50
522.65	2155.63
523.01	2178.52
523.37	2200.70
523.73	2223.26
524.09	2245.89
524.45	2268.61
524.81	2290.51
525.17	2312.18
525.53	2333.18
525.89	2354.40
526.25	2375.18
526.61	2394.86
526.97	2414.77
527.33	2434.19
527.68	2452.75
528.04	2470.70
528.40	2487.75
528.76	2505.29
529.12	2521.62
529.48	2538.43
529.84	2553.88
530.20	2570.49
530.56	2586.04
530.91	2601.41
531.27	2615.81
531.63	2629.19
531.99	2642.31
532.35	2653.84
532.71	2665.40
533.07	2677.29
533.42	2687.61
533.78	2698.72
534.14	2710.07
534.50	2720.03
534.86	2730.13
535.21	2738.21
535.57	2746.32
535.93	2754.84
536.29	2762.22
536.65	2769.85
537.00	2775.33
537.36	2781.12
537.72	2785.21
538.08	2788.99
538.44	2791.87
538.79	2795.16
539.15	2797.83
539.51	2799.83
539.87	2802.51
540.22	2803.15
540.58	2804.21
540.94	2804.99
541.29	2804.18
541.65	2801.94
542.01	2799.69
542.37	2796.42
542.72	2794.99
543.08	2792.28
543.44	2789.36
543.79	2784.68
544.15	2779.82
544.51	2775.84
544.87	2769.91
545.22	2763.36
545.58	2756.99
545.94	2751.46
546.29	2744.26
546.65	2736.34
547.01	2728.53
547.36	2720.31
547.72	2711.95
548.07	2702.44
548.43	2692.67
548.79	2681.91
549.14	2672.11
549.50	2662.18
549.86	2651.62
550.21	2639.13
550.57	2628.00
550.92	2615.06
551.28	2602.72
551.64	2590.71
551.99	2578.70
552.35	2566.87
552.70	2554.80
553.06	2543.10
553.41	2530.25
553.77	2516.96
554.13	2503.99
554.48	2490.19
554.84	2475.90
555.19	2462.59
555.55	2448.44
555.90	2434.47
556.26	2421.52
556.61	2407.78
556.97	2393.05
557.32	2378.70
557.68	2364.57
558.03	2349.83
558.39	2335.95
558.74	2322.39
559.10	2306.65
559.45	2291.40
559.81	2276.93
560.16	2262.10
560.52	2246.91
560.87	2232.50
561.23	2217.66
561.58	2203.16
561.94	2187.97
562.29	2172.88
562.64	2157.77
563.00	2142.77
563.35	2128.36
563.71	2113.71
564.06	2098.64
564.42	2084.07
564.77	2069.59
565.12	2055.50
565.48	2041.30
565.83	2026.73
566.19	2012.23
566.54	1998.31
566.89	1983.23
567.25	1967.56
567.60	1953.10
567.96	1938.14
568.31	1922.55
568.66	1907.77
569.02	1893.02
569.37	1878.41
569.72	1864.11
570.08	1849.66
570.43	1835.18
570.78	1819.91
571.14	1804.60
571.49	1789.74
571.84	1775.69
572.20	1760.34
572.55	1745.22
572.90	1729.59
573.26	1713.99
573.61	1698.14
573.96	1682.88
574.31	1668.31
574.67	1654.22
575.02	1639.30
575.37	1624.05
575.72	1608.75
576.08	1593.81
576.43	1578.91
576.78	1564.09
577.13	1549.36
577.49	1534.63
577.84	1519.84
578.19	1505.20
578.54	1490.65
578.90	1475.93
579.25	1460.67
579.60	1446.67
579.95	1432.57
580.30	1418.69
580.66	1404.86
581.01	1391.17
581.36	1377.36
581.71	1363.46
582.06	1349.65
582.42	1335.98
582.77	1322.69
583.12	1309.72
583.47	1296.55
583.82	1283.51
584.17	1270.52
584.53	1257.52
584.88	1244.90
585.23	1232.16
585.58	1219.68
585.93	1207.15
586.28	1195.31
586.63	1183.33
586.98	1171.16
587.34	1159.38
587.69	1147.35
588.04	1135.69
588.39	1124.18
588.74	1112.55
589.09	1101.31
589.44	1089.55
589.79	1078.38
590.14	1067.35
590.49	1056.40
590.84	1045.79
591.19	1035.21
591.54	1024.56
591.89	1013.72
592.25	1002.93
592.60	992.06
592.95	981.50
593.30	970.99
593.65	960.33
594.00	950.04
594.35	940.41
594.70	930.27
595.05	920.86
595.40	911.29
595.75	901.58
596.10	892.34
596.45	882.93
596.80	873.89
597.15	864.84
597.50	855.84
597.85	847.16
598.19	838.42
598.54	829.71
598.89	821.21
599.24	813.11
599.59	805.10
599.94	797.61
600.29	789.89
600.64	782.28
600.99	774.65
601.34	767.22
601.69	759.22
602.04	751.83
602.39	744.52
602.74	737.41
603.08	730.42
603.43	723.47
603.78	716.64
604.13	709.99
604.48	703.32
604.83	696.91
605.18	690.44
605.53	684.14
605.87	677.71
606.22	671.55
606.57	665.36
606.92	659.06
607.27	652.88
607.62	647.07
607.96	641.32
608.31	635.90
608.66	630.29
609.01	624.96
609.36	619.83
609.70	614.59
610.05	609.32
610.40	604.16
610.75	598.93
611.10	594.03
611.44	589.04
611.79	584.20
612.14	579.29
612.49	574.37
612.83	569.67
613.18	565.26
613.53	560.79
613.88	556.38
614.22	552.19
614.57	547.88
614.92	543.60
615.27	539.46
615.61	535.31
615.96	531.34
616.31	527.38
616.65	523.39
617.00	519.49
617.35	515.71
617.70	512.01
618.04	508.46
618.39	504.86
618.74	501.39
619.08	497.82
619.43	494.37
619.78	491.05
620.12	487.77
620.47	484.59
620.82	481.46
621.16	478.38
621.51	475.45
621.85	472.56
622.20	469.73
622.55	466.91
622.89	464.11
623.24	461.44
623.59	458.78
623.93	456.19
624.28	453.70
624.62	451.41
624.97	449.12
625.32	446.68
625.66	444.22
626.01	441.81
626.35	439.62
626.70	437.34
627.04	435.22
627.39	433.01
627.73	430.83
628.08	428.77
628.43	426.75
628.77	424.70
629.12	422.79
629.46	420.84
629.81	419.01
630.15	417.12
630.50	415.24
630.84	413.47
631.19	411.77
631.53	410.11
631.88	408.26
632.22	406.49
632.57	405.03
632.91	403.56
633.26	402.18
633.60	400.71
633.95	399.34
634.29	397.86
634.64	396.46
634.98	394.95
635.32	393.56
635.67	392.25
636.01	390.94
636.36	389.64
636.70	388.50
637.05	387.23
637.39	386.09
637.73	384.93
638.08	383.81
638.42	382.66
638.77	381.44
639.11	380.21
639.45	379.05
639.80	377.86
640.14	376.72
640.49	375.51
640.83	374.38
641.17	373.25
641.52	372.16
641.86	371.09
642.20	370.21
642.55	369.13
642.89	368.10
643.23	367.07
643.58	366.17
643.92	365.09
644.26	364.09
644.61	363.16
644.95	362.21
645.29	361.22
645.64	360.23
645.98	359.28
646.32	358.44
646.66	357.54
647.01	356.60
647.35	355.74
647.69	354.88
648.04	354.04
648.38	353.17
648.72	352.36
649.06	351.60
649.41	350.75
649.75	349.97
650.09	349.22
650.43	348.48
650.78	347.68
651.12	346.90
651.46	346.17
651.80	345.44
652.14	344.71
652.49	344.03
652.83	343.29
653.17	342.59
653.51	341.89
653.85	341.27
654.20	340.64
654.54	339.93
654.88	339.25
655.22	338.62
655.56	337.92
655.90	337.23
656.25	336.54
656.59	335.88
656.93	335.27
657.27	334.70
657.61	334.00
657.95	333.40
658.29	332.80
658.64	332.25
658.98	331.63
659.32	331.01
659.66	330.42
660.00	329.86
660.34	329.29
660.68	328.69
661.02	328.04
661.36	327.40
661.70	326.80
662.05	326.24
662.39	325.71
662.73	325.28
663.07	324.84
663.41	324.33
663.75	323.76
664.09	323.20
664.43	322.57
664.77	322.07
665.11	321.49
665.45	320.94
665.79	320.39
666.13	319.84
666.47	319.27
666.81	318.68
667.15	318.08
667.49	317.58
667.83	317.15
668.17	316.69
668.51	316.25
668.85	315.84
669.19	315.47
669.53	314.93
669.87	314.42
670.21	313.94
670.55	313.49
670.89	313.16
671.23	312.73
671.57	312.31
671.91	311.92
672.25	311.54
672.58	311.16
672.92	310.70
673.26	310.31
673.60	309.93
673.94	309.54
674.28	309.19
674.62	308.81
674.96	308.36
675.30	307.96
675.64	307.53
675.97	307.09
676.31	306.59
676.65	306.17
676.99	305.80
677.33	305.32
677.67	304.86
678.01	304.31
678.34	303.86
678.68	303.44
679.02	302.95
679.36	302.52
679.70	302.05
680.04	301.62
680.37	301.18
680.71	300.75
681.05	300.37
681.39	299.93
681.73	299.45
682.06	298.98
682.40	298.55
682.74	298.18
683.08	297.81
683.42	297.37
683.75	296.96
684.09	296.44
684.43	295.99
684.77	295.53
685.10	295.13
685.44	294.75
685.78	294.33
686.12	293.93
686.45	293.47
686.79	293.01
687.13	292.61
687.46	292.15
687.80	291.71
688.14	291.21
688.48	290.77
688.81	290.35
689.15	290.00
689.49	289.52
689.82	289.04
690.16	288.50
690.50	288.06
690.83	287.63
691.17	287.18
691.51	286.77
691.84	286.40
692.18	285.98
692.52	285.52
692.85	285.08
693.19	284.73
693.52	284.33
693.86	283.94
694.20	283.52
694.53	283.11
694.87	282.67
695.21	282.24
695.54	281.83
695.88	281.37
696.21	280.86
696.55	280.45
696.88	280.03
697.22	279.62
697.56	279.23
697.89	278.76
698.23	278.34
698.56	277.89
698.90	277.47
699.23	276.99
699.57	276.58
699.90	276.13
700.24	275.63
700.58	275.22
700.91	274.85
701.25	274.61
701.58	274.30
701.92	273.97
702.25	273.62
702.59	273.22
702.92	272.85
703.26	272.48
703.59	272.09
703.93	271.85
704.26	271.50
704.60	271.10
704.93	270.71
705.26	270.31
705.60	269.98
705.93	269.56
706.27	269.27
706.60	268.94
706.94	268.64
707.27	268.25
707.61	267.87
707.94	267.47
708.27	266.93
708.61	266.48
708.94	266.08
709.28	265.70
709.61	265.33
709.94	265.00
710.28	264.68
710.61	264.38
710.95	263.90
711.28	263.68
711.61	263.35
711.95	263.08
712.28	262.75
712.61	262.38
712.95	262.14
713.28	261.87
713.61	261.51
713.95	261.15
714.28	260.85
714.61	260.51
714.95	260.19
715.28	259.88
715.61	259.57
715.95	259.30
716.28	258.99
716.61	258.71
716.95	258.37
717.28	258.05
717.61	257.72
717.94	257.42
718.28	257.00
718.61	256.70
718.94	256.39
719.27	256.11
719.61	255.87
719.94	255.57
720.27	255.22
720.60	254.95
720.94	254.69
721.27	254.44
721.60	254.21
721.93	253.95
722.27	253.76
722.60	253.53
722.93	253.24
723.26	253.01
723.59	252.75
723.93	252.55
724.26	252.34
724.59	252.10
724.92	251.89
725.25	251.72
725.59	251.50
725.92	251.31
726.25	251.09
726.58	250.87
726.91	250.63
727.24	250.43
727.57	250.21
727.91	249.97
728.24	249.78
728.57	249.56
728.90	249.38
729.23	249.11
729.56	248.99
729.89	248.80
730.22	248.58
730.55	248.38
730.89	248.16
731.22	247.95
731.55	247.75
731.88	247.55
732.21	247.32
732.54	247.12
732.87	246.92
733.20	246.75
733.53	246.57
733.86	246.40
734.19	246.20
734.52	246.06
734.85	246.01
735.18	245.81
735.51	245.68
735.84	245.53
736.17	245.43
736.50	245.16
736.83	245.19
737.16	245.03
737.49	244.89
737.82	244.71
738.15	244.56
738.48	244.41
738.81	244.24
739.14	244.05
739.47	243.88
739.80	243.73
740.13	243.59
740.46	243.42
740.79	243.24
741.12	243.09
741.45	242.90
741.78	242.67
742.11	242.57
742.44	242.38
742.77	242.24
743.10	242.05
743.43	241.91
743.75	241.58
744.08	241.70
744.41	241.54
744.74	241.40
745.07	241.22
745.40	241.12
745.73	241.07
746.06	240.95
746.39	240.84
746.71	240.70
747.04	240.53
747.37	240.40
747.70	240.30
748.03	240.17
748.36	240.06
748.68	239.93
749.01	239.75
749.34	239.64
749.67	239.52
750.00	239.43
750.33	239.44
750.65	239.35
750.98	238.97
751.31	238.87
751.64	238.77
751.97	238.77
752.29	238.64
752.62	238.42
752.95	238.30
753.28	238.16
753.60	238.03
753.93	237.96
754.26	237.86
754.59	237.70
754.91	237.56
755.24	237.45
755.57	237.34
755.90	237.24
756.22	237.11
756.55	236.96
756.88	236.82
757.20	236.60
757.53	236.43
757.86	236.34
758.19	236.25
758.51	236.14
758.84	235.95
759.17	235.84
759.49	235.75
759.82	235.76
760.15	235.69
760.47	235.60
760.80	235.47
761.13	235.41
761.45	235.33
761.78	235.26
762.11	235.17
762.43	235.07
762.76	234.99
763.08	234.92
763.41	234.86
763.74	234.78
764.06	234.69
764.39	234.63
764.71	234.53
765.04	234.44
765.37	234.35
765.69	234.27
766.02	234.20
766.34	234.13
766.67	233.99
767.00	233.94
767.32	233.96
767.65	234.01
767.97	233.91
768.30	233.86
768.62	233.78
768.95	233.70
769.27	233.63
769.60	233.60
769.92	233.52
770.25	233.42
770.57	233.35
770.90	233.29
771.22	233.22
771.55	233.18
771.87	233.14
772.20	233.08
772.52	233.18
772.85	233.35
773.17	233.30
773.50	233.23
773.82	233.15
774.15	233.01
774.47	232.85
774.80	232.79
775.12	232.74
775.45	232.69
775.77	232.66
776.09	232.63
776.42	232.59
776.74	232.60
777.07	232.56
777.39	232.52
777.72	232.47
778.04	232.46
778.36	232.39
778.69	232.36
779.01	232.34
779.33	232.14
779.66	231.89
779.98	231.83
780.31	231.81
780.63	231.86
780.95	231.86
781.28	231.82
781.60	231.77
781.92	231.74
782.25	231.71
782.57	231.67
782.89	231.62
783.22	231.56
783.54	231.49
783.86	231.47
784.19	231.43
784.51	231.46
784.83	231.40
785.16	231.36
785.48	231.33
785.80	231.29
786.12	231.28
786.45	231.26
786.77	231.24
787.09	231.19
787.42	231.09
787.74	231.07
788.06	231.04
788.38	231.02
788.71	230.97
789.03	230.96
789.35	230.95
789.67	230.89
789.99	230.88
790.32	230.83
790.64	230.82
790.96	230.95
791.28	230.86
791.61	230.83
791.93	230.82
792.25	230.78
792.57	230.89
792.89	230.83
793.21	230.82
793.54	230.78
793.86	230.74
794.18	230.72
794.50	230.66
794.82	230.64
795.14	230.64
795.47	230.65
795.79	230.62
796.11	230.56
796.43	230.54
796.75	230.51
797.07	230.51
797.39	230.46
797.71	230.30
798.04	230.29
798.36	230.28
798.68	230.25
799.00	230.24
799.32	230.12
799.64	230.13
799.96	230.10
800.28	230.11
800.60	230.10
800.92	230.08
801.24	230.06
801.56	230.05
801.89	230.01
802.21	230.00
802.53	229.94
802.85	229.97
803.17	230.04
803.49	230.00
803.81	229.96
804.13	229.94
804.45	229.89
804.77	229.89
805.09	229.87
805.41	229.83
805.73	229.79
806.05	229.72
806.37	229.68
806.69	229.66
807.01	229.63
807.33	229.62
807.65	229.54
807.97	229.61
808.28	229.58
808.60	229.56
808.92	229.52
809.24	229.62
809.56	229.57
809.88	229.50
810.20	229.49
810.52	229.51
810.84	229.48
811.16	229.45
811.48	229.43
811.80	229.47
812.12	229.46
812.43	229.50
812.75	229.50
813.07	229.46
813.39	229.45
813.71	229.41
814.03	229.38
814.35	229.38
814.67	229.30
814.98	229.26
815.30	229.25
815.62	229.22
815.94	229.09
816.26	229.09
816.58	229.04
816.89	229.04
817.21	228.99
817.53	228.99
817.85	228.99
818.17	228.98
818.48	228.89
818.80	228.91
819.12	228.87
819.44	228.82
819.76	228.79
820.07	228.78
820.39	228.77
820.71	228.78
821.03	228.78
821.34	228.74
821.66	228.76
821.98	228.76
822.30	228.74
822.61	228.85
822.93	228.82
823.25	228.82
823.57	228.79
823.88	228.80
824.20	228.78
824.52	228.81
824.83	228.79
825.15	228.77
825.47	228.75
825.79	228.75
826.10	228.75
826.42	228.74
826.74	228.74
827.05	228.73
827.37	228.72
827.69	228.71
828.00	228.72
828.32	228.71
828.64	228.68
828.95	228.77
829.27	228.70
829.58	228.69
829.90	228.72
830.22	228.72
830.53	228.69
830.85	228.67
831.17	228.60
831.48	228.58
831.80	228.59
832.11	228.58
832.43	228.54
832.75	228.54
833.06	228.64
833.38	228.59
833.69	228.58
834.01	228.58
834.32	228.57
834.64	228.54
834.96	228.54
835.27	228.53
835.59	228.46
835.90	228.44
836.22	228.43
836.53	228.38
836.85	228.35
837.16	228.52
837.48	228.52
837.79	228.58
838.11	228.59
838.42	228.58
838.74	228.60
839.05	228.58
839.37	228.57
839.68	228.46
840.00	228.44
840.31	228.46
840.63	228.44
840.94	228.42
841.26	228.41
841.57	228.39
841.88	228.41
842.20	228.38
842.51	228.35
842.83	228.35
843.14	228.51
843.46	228.51
843.77	228.42
844.08	228.40
844.40	228.35
844.71	228.34
845.03	228.31
845.34	228.28
845.65	228.29
845.97	228.29
846.28	228.30
846.60	228.31
846.91	228.28
847.22	228.28
847.54	228.31
847.85	228.31
848.16	228.30
848.48	228.27
848.79	228.33
849.10	228.35
849.42	228.34
849.73	228.18
850.04	228.17
850.36	228.10
850.67	228.13
850.98	228.13
851.30	228.14
851.61	228.15
851.92	228.15
852.23	228.21
852.55	228.22
852.86	228.22
853.17	228.23
853.49	228.27
853.80	228.29
854.11	228.30
854.42	228.31
854.74	228.30
855.05	228.31
855.36	228.21
855.67	228.21
855.99	228.21
856.30	228.42
856.61	228.41
856.92	228.42
857.23	228.42
857.55	228.39
857.86	228.37
858.17	228.39
858.48	228.36
858.79	228.31
859.11	228.31
859.42	228.29
859.73	228.26
860.04	228.23
860.35	228.19
860.66	228.13
860.98	228.12
861.29	228.14
861.60	228.12
861.91	228.17
862.22	228.14
862.53	228.11
862.84	227.90
863.16	227.94
863.47	227.88
863.78	227.85
864.09	227.86
864.40	227.88
864.71	227.86
865.02	227.88
865.33	227.85
865.64	227.81
865.95	227.81
866.27	227.91
866.58	227.89
866.89	227.92
867.20	227.92
867.51	227.88
867.82	227.87
868.13	227.92
868.44	227.87
868.75	227.90
869.06	227.91
869.37	227.93
869.68	227.88
869.99	227.92
870.30	227.94
870.61	227.96
870.92	227.93
871.23	227.92
871.54	227.93
871.85	227.98
872.16	228.01
872.47	227.99
872.78	227.89
873.09	227.91
873.40	227.89
873.71	227.90
874.02	227.92
874.33	227.90
874.64	227.85
874.95	227.90
875.26	227.86
875.56	227.86
875.87	227.84
876.18	227.84
876.49	228.00
876.80	227.97
877.11	227.93
877.42	227.95
877.73	227.95
878.04	227.92
878.35	227.91
878.66	227.91
878.96	227.91
879.27	227.90
879.58	227.90
879.89	227.88
880.20	227.93
880.51	227.91
880.82	227.92
881.12	227.94
881.43	227.89
881.74	227.87
882.05	227.84
882.36	227.86
882.67	227.86
882.97	227.67
883.28	227.66
883.59	227.67
883.90	227.69
884.21	227.72
884.51	227.71
884.82	227.68
885.13	227.68
885.44	227.68
885.74	227.68
886.05	227.67
886.36	227.67
886.67	227.60
886.98	227.70
887.28	227.72
887.59	227.72
887.90	227.72
888.20	227.72
888.51	227.76
888.82	227.73
889.13	227.75
889.43	227.91
889.74	227.90
890.05	227.89
890.35	227.87
890.66	227.83
890.97	227.82
891.28	227.81
891.58	227.81
891.89	227.81
892.20	227.79
892.50	227.77
892.81	227.77
893.12	227.77
893.42	227.67
893.73	227.67
894.04	227.66
894.34	227.68
894.65	227.67
894.95	227.65
895.26	227.67
895.57	227.74
895.87	227.55
896.18	227.58
896.48	227.59
896.79	227.59
897.10	227.62
897.40	227.62
897.71	227.65
898.01	227.64
898.32	227.65
898.63	227.64
898.93	227.66
899.24	227.66
899.54	227.66
899.85	227.65
900.15	227.64
900.46	227.64
900.76	227.65
901.07	227.65
901.38	227.64
901.68	227.65
901.99	227.56
902.29	227.58
902.60	227.56
902.90	227.54
903.21	227.53
903.51	227.51
903.82	227.55
904.12	227.55
904.43	227.54
904.73	227.54
905.03	227.55
905.34	227.72
905.64	227.71
905.95	227.71
906.25	227.71
906.56	227.70
906.86	227.71
907.17	227.71
907.47	227.71
907.77	227.69
908.08	227.65
908.38	227.66
908.69	227.67
908.99	227.70
909.30	227.72
909.60	227.72
909.90	227.73
910.21	227.68
910.51	227.65
910.81	227.66
911.12	227.66
911.42	227.65
911.73	227.47
912.03	227.48
912.33	227.52
912.64	227.50
912.94	227.50
913.24	227.46
913.55	227.44
913.85	227.43
914.15	227.48
914.46	227.50
914.76	227.49
915.06	227.48
915.37	227.45
915.67	227.44
915.97	227.44
916.27	227.42
916.58	227.42
916.88	227.43
917.18	227.41
917.49	227.53
917.79	227.53
918.09	227.55
918.39	227.58
918.70	227.57
919.00	227.58
919.30	227.66
919.60	227.66
919.91	227.65
920.21	227.65
920.51	227.61
920.81	227.60
921.12	227.63
921.42	227.62
921.72	227.63
922.02	227.64
922.32	227.66
922.63	227.68
922.93	227.78
923.23	227.79
923.53	227.76
923.83	227.65
924.13	227.67
924.44	227.66
924.74	227.69
925.04	227.74
925.34	227.74
925.64	227.66
925.94	227.66
926.24	227.76
926.55	227.75
926.85	227.77
927.15	227.78
927.45	227.77
927.75	227.78
928.05	227.77
928.35	227.76
928.65	227.79
928.95	227.80
929.26	227.71
929.56	227.74
929.86	227.79
930.16	227.77
930.46	227.76
930.76	227.77
931.06	227.68
931.36	227.61
931.66	227.64
931.96	227.67
932.26	227.69
932.56	227.61
932.86	227.63
933.16	227.63
933.46	227.61
933.76	227.59
934.06	227.62
934.36	227.67
934.66	227.66
934.96	227.64
935.26	227.65
935.56	227.68
935.86	227.63
936.16	227.59
936.46	227.58
936.76	227.57
937.06	227.53
937.36	227.55
937.66	227.56
937.96	227.53
938.26	227.50
938.56	227.49
938.86	227.50
939.16	227.54
939.46	227.56
939.76	227.57
940.06	227.56
940.35	227.53
940.65	227.45
940.95	227.46
941.25	227.42
941.55	227.40
941.85	227.38
942.15	227.42
942.45	227.47
942.75	227.47
943.04	227.48
943.34	227.53
943.64	227.50
943.94	227.48
944.24	227.48
944.54	227.49
944.84	227.49
945.13	227.47
945.43	227.42
945.73	227.40
946.03	227.37
946.33	227.36
946.62	227.34
946.92	227.34
947.22	227.34
947.52	227.36
947.82	227.37
948.11	227.36
948.41	227.32
948.71	227.26
949.01	227.28
949.31	227.27
949.60	227.25
949.90	227.29
950.20	227.28
950.50	227.28
950.79	227.26
951.09	227.27
951.39	227.27
951.69	227.26
951.98	227.30
952.28	227.31
952.58	227.32
952.87	227.33
953.17	227.35
953.47	227.33
953.76	227.31
954.06	227.29
954.36	227.26
954.66	227.26
954.95	227.32
955.25	227.33
955.55	227.34
955.84	227.30
956.14	227.32
956.44	227.33
956.73	227.30
957.03	227.33
957.32	227.32
957.62	227.31
957.92	227.34
958.21	227.32
958.51	227.52
958.81	227.54
959.10	227.56
959.40	227.59
959.69	227.61
959.99	227.63
960.29	227.63
960.58	227.62
960.88	227.70
961.17	227.67
961.47	227.69
961.76	227.67
962.06	227.70
962.36	227.68
962.65	227.69
962.95	227.70
963.24	227.68
963.54	227.69
963.83	227.71
964.13	227.71
964.42	227.68
964.72	227.53
965.01	227.53
965.31	227.51
965.60	227.45
965.90	227.57
966.19	227.53
966.49	227.55
966.78	227.54
967.08	227.51
967.37	227.51
967.67	227.48
967.96	227.50
968.26	227.50
968.55	227.52
968.85	227.51
969.14	227.50
969.43	227.50
969.73	227.48
970.02	227.46
970.32	227.45
970.61	227.43
970.91	227.38
971.20	227.36
971.49	227.36
971.79	227.39
972.08	227.26
972.38	227.28
972.67	227.26
972.96	227.29
973.26	227.26
973.55	227.32
973.85	227.31
974.14	227.29
974.43	227.29
974.73	227.26
975.02	227.24
975.31	227.25
975.61	227.24
975.90	227.23
976.19	227.23
976.49	227.25
976.78	227.26
977.07	227.27
977.37	227.28
977.66	227.29
977.95	227.26
978.24	227.28
978.54	227.31
978.83	227.29
979.12	227.29
979.42	227.29
979.71	227.25
980.00	227.26
980.29	227.27
980.59	227.24
980.88	227.29
981.17	227.29
981.46	227.29
981.76	227.29
982.05	227.34
982.34	227.35
982.63	227.32
982.93	227.32
983.22	227.36
983.51	227.37
983.80	227.39
984.09	227.41
984.39	227.40
984.68	227.36
984.97	227.38
985.26	227.36
985.55	227.38
985.85	227.34
986.14	227.37
986.43	227.38
986.72	227.38
987.01	227.32
987.30	227.33
987.59	227.30
987.89	227.31
988.18	227.25
988.47	227.23
988.76	227.23
989.05	227.22
989.34	227.19
989.63	227.23
989.92	227.20
990.22	227.18
990.51	227.17
990.80	227.16
991.09	227.17
991.38	227.19
991.67	227.16
991.96	227.16
992.25	227.15
992.54	227.12
992.83	227.12
993.12	227.11
993.41	227.15
993.70	227.23
993.99	227.26
994.28	227.29
994.58	227.33
994.87	227.32
995.16	227.30
995.45	227.29
995.74	227.22
996.03	227.24
996.32	227.27
996.61	227.30
996.90	227.31
997.19	227.29
997.48	227.28
997.77	227.27
998.06	227.28
998.34	227.26
998.63	227.27
998.92	227.28
999.21	227.31
999.50	227.29
999.79	227.23
1000.08	227.22
1000.37	227.22
1000.66	227.18
1000.95	227.22
1001.24	227.25
1001.53	227.28
1001.82	227.29
1002.11	227.25
1002.40	227.25
1002.68	227.31
1002.97	227.44
1003.26	227.43
1003.55	227.41
1003.84	227.43
1004.13	227.49
1004.42	227.48
1004.71	227.48
1004.99	227.48
1005.28	227.51
1005.57	227.51
1005.86	227.50
1006.15	227.49
1006.44	227.47
1006.72	227.48
1007.01	227.46
1007.30	227.45
1007.59	227.43
1007.88	227.43
1008.17	227.44
1008.45	227.41
1008.74	227.32
1009.03	227.24
1009.32	227.25
1009.60	227.25
1009.89	227.23
1010.18	227.15
1010.47	227.14
1010.76	227.15
1011.04	227.13
1011.33	227.13
1011.62	227.13
1011.91	227.15
1012.19	227.16
1012.48	227.17
1012.77	227.17
1013.05	227.23
1013.34	227.23
1013.63	227.22
1013.92	227.24
1014.20	227.23
1014.49	227.25
1014.78	227.27
1015.06	227.22
1015.35	227.20
1015.64	227.22
1015.92	227.25
1016.21	227.27
1016.50	227.27
1016.78	227.29
1017.07	227.31
1017.36	227.29
1017.64	227.27
1017.93	227.28
1018.22	227.26
1018.50	227.26
1018.79	227.26
1019.08	227.19
1019.36	227.19
1019.65	227.18
1019.93	227.23
1020.22	227.25
1020.51	227.33
1020.79	227.30
1021.08	226.99
1021.36	227.08
1021.65	227.23
1021.94	227.12
1022.22	227.16
1022.51	227.01
1022.79	228.06
1023.08	227.46
1023.36	229.31
1023.65	226.78
>>>>>End Processed Spectral Data<<<<<
