SpectraSuite Data File
++++++++++++++++++++++++++++++++++++
Date: Tue Oct 06 16:04:58 EDT 2015
User: lab3
Dark Spectrum Present: No
Reference Spectrum Present: No
Number of Sampled Component Spectra: 1
Spectrometers: USB2E7196
Integration Time (usec): 66000 (USB2E7196)
Spectra Averaged: 1000 (USB2E7196)
Boxcar Smoothing: 10 (USB2E7196)
Correct for Electrical Dark: No (USB2E7196)
Strobe/Lamp Enabled: No (USB2E7196)
Correct for Detector Non-linearity: No (USB2E7196)
Correct for Stray Light: No (USB2E7196)
Number of Pixels in Processed Spectrum: 2048
>>>>>Begin Processed Spectral Data<<<<<
339.09	0.00
339.48	216.04
339.86	217.57
340.24	218.91
340.63	220.45
341.01	224.34
341.39	223.05
341.78	224.61
342.16	225.87
342.54	226.11
342.93	214.51
343.31	225.34
343.69	225.88
344.07	226.33
344.46	226.78
344.84	227.17
345.22	227.37
345.60	227.63
345.99	227.84
346.37	227.97
346.75	228.09
347.13	228.18
347.52	228.26
347.90	228.38
348.28	228.42
348.66	228.50
349.05	228.47
349.43	228.54
349.81	228.62
350.19	228.68
350.57	228.76
350.96	228.85
351.34	228.96
351.72	229.08
352.10	229.19
352.48	229.25
352.87	229.31
353.25	229.39
353.63	229.45
354.01	229.50
354.39	229.58
354.77	229.66
355.15	229.77
355.54	229.82
355.92	229.82
356.30	229.90
356.68	230.09
357.06	230.18
357.44	230.22
357.82	230.28
358.20	230.50
358.58	230.56
358.97	230.63
359.35	230.73
359.73	230.82
360.11	230.87
360.49	230.95
360.87	231.00
361.25	231.06
361.63	231.17
362.01	231.23
362.39	231.26
362.77	231.33
363.15	231.35
363.53	231.39
363.91	231.44
364.29	231.48
364.67	231.34
365.05	231.38
365.43	231.42
365.81	231.46
366.19	231.40
366.57	231.49
366.95	231.50
367.33	231.45
367.71	231.45
368.09	231.50
368.47	231.49
368.85	231.48
369.23	231.50
369.61	231.43
369.99	231.48
370.37	231.48
370.75	231.60
371.13	231.58
371.51	231.53
371.89	231.52
372.27	231.48
372.65	231.47
373.03	231.42
373.41	231.37
373.78	231.33
374.16	231.21
374.54	231.11
374.92	231.06
375.30	231.03
375.68	230.95
376.06	230.91
376.44	230.85
376.82	230.81
377.19	230.77
377.57	230.72
377.95	230.61
378.33	230.56
378.71	230.34
379.09	230.30
379.47	230.26
379.84	230.20
380.22	230.14
380.60	230.06
380.98	230.02
381.36	229.95
381.73	229.89
382.11	229.88
382.49	229.84
382.87	229.77
383.25	229.73
383.62	229.89
384.00	229.82
384.38	229.79
384.76	229.80
385.13	229.80
385.51	229.76
385.89	229.71
386.27	229.67
386.64	229.65
387.02	229.60
387.40	229.57
387.78	229.55
388.15	229.54
388.53	229.51
388.91	229.49
389.29	229.47
389.66	229.47
390.04	229.43
390.42	229.43
390.79	229.43
391.17	229.40
391.55	229.20
391.92	229.18
392.30	229.19
392.68	229.14
393.05	229.12
393.43	229.14
393.81	229.15
394.18	229.13
394.56	229.15
394.94	229.20
395.31	229.20
395.69	229.28
396.06	229.32
396.44	229.36
396.82	229.38
397.19	229.51
397.57	229.52
397.95	229.59
398.32	229.59
398.70	229.66
399.07	229.77
399.45	229.83
399.82	229.90
400.20	229.97
400.58	230.06
400.95	230.09
401.33	230.23
401.70	230.46
402.08	230.61
402.45	230.74
402.83	230.90
403.20	231.07
403.58	231.21
403.95	231.42
404.33	231.64
404.71	231.86
405.08	232.16
405.46	232.41
405.83	232.69
406.21	233.00
406.58	233.33
406.96	233.65
407.33	234.03
407.70	234.45
408.08	235.02
408.45	235.52
408.83	236.06
409.20	236.54
409.58	237.01
409.95	237.64
410.33	238.31
410.70	238.97
411.08	239.72
411.45	240.52
411.82	241.34
412.20	242.27
412.57	243.37
412.95	244.26
413.32	245.41
413.69	246.60
414.07	247.86
414.44	249.22
414.82	250.63
415.19	252.28
415.56	253.96
415.94	255.71
416.31	257.67
416.68	259.62
417.06	261.90
417.43	264.02
417.81	266.46
418.18	268.96
418.55	271.68
418.93	274.52
419.30	277.49
419.67	280.64
420.04	283.88
420.42	287.26
420.79	291.16
421.16	295.10
421.54	299.06
421.91	303.24
422.28	307.58
422.66	312.24
423.03	316.68
423.40	321.32
423.77	326.30
424.15	331.40
424.52	336.68
424.89	342.40
425.26	348.09
425.64	353.36
426.01	359.27
426.38	365.31
426.75	371.52
427.13	377.87
427.50	384.53
427.87	391.43
428.24	398.41
428.61	405.07
428.99	412.27
429.36	420.18
429.73	427.69
430.10	435.22
430.47	442.91
430.85	450.85
431.22	459.30
431.59	467.96
431.96	476.43
432.33	485.85
432.70	494.81
433.08	505.39
433.45	515.38
433.82	525.23
434.19	536.29
434.56	547.14
434.93	557.70
435.30	568.16
435.68	580.05
436.05	591.63
436.42	603.25
436.79	613.86
437.16	625.37
437.53	637.70
437.90	650.01
438.27	662.12
438.64	675.20
439.01	687.11
439.38	698.05
439.75	708.60
440.13	720.60
440.50	732.01
440.87	741.17
441.24	751.22
441.61	762.24
441.98	770.36
442.35	780.07
442.72	789.93
443.09	799.33
443.46	805.44
443.83	810.13
444.20	814.01
444.57	819.63
444.94	823.01
445.31	826.52
445.68	829.53
446.05	831.83
446.42	831.62
446.79	831.13
447.16	830.78
447.53	830.49
447.90	827.07
448.27	823.78
448.64	818.50
449.01	814.94
449.37	807.41
449.74	800.61
450.11	791.72
450.48	781.95
450.85	772.17
451.22	763.77
451.59	755.50
451.96	748.01
452.33	737.12
452.70	727.44
453.07	715.65
453.43	703.91
453.80	692.43
454.17	681.45
454.54	671.31
454.91	659.85
455.28	649.02
455.65	638.80
456.02	627.99
456.38	619.32
456.75	608.20
457.12	599.20
457.49	590.13
457.86	581.58
458.23	574.00
458.59	565.68
458.96	557.13
459.33	549.60
459.70	541.95
460.07	536.12
460.43	529.22
460.80	522.78
461.17	517.18
461.54	511.13
461.91	505.45
462.27	499.70
462.64	494.97
463.01	489.58
463.38	484.15
463.74	479.27
464.11	474.92
464.48	470.97
464.85	466.72
465.21	463.46
465.58	459.83
465.95	455.74
466.32	452.47
466.68	449.27
467.05	446.04
467.42	442.90
467.78	439.52
468.15	436.43
468.52	434.18
468.88	431.19
469.25	428.45
469.62	426.29
469.98	423.93
470.35	421.82
470.72	419.92
471.08	417.96
471.45	416.33
471.82	414.52
472.18	412.61
472.55	411.38
472.92	409.84
473.28	408.65
473.65	407.37
474.02	406.14
474.38	405.08
474.75	404.47
475.11	403.64
475.48	403.25
475.85	402.81
476.21	402.56
476.58	402.37
476.94	402.55
477.31	402.62
477.67	402.69
478.04	403.00
478.41	403.44
478.77	404.06
479.14	404.44
479.50	405.22
479.87	406.22
480.23	407.21
480.60	408.18
480.96	409.14
481.33	410.58
481.69	412.00
482.06	413.42
482.42	414.70
482.79	416.32
483.15	418.21
483.52	420.34
483.88	422.35
484.25	424.50
484.61	426.75
484.98	429.15
485.34	431.88
485.71	434.76
486.07	437.79
486.44	440.81
486.80	444.21
487.17	447.68
487.53	451.48
487.90	455.42
488.26	459.72
488.62	464.23
488.99	468.77
489.35	473.51
489.72	478.60
490.08	483.99
490.44	489.45
490.81	495.17
491.17	501.04
491.54	507.33
491.90	513.76
492.26	520.64
492.63	527.82
492.99	535.33
493.36	542.98
493.72	551.03
494.08	559.25
494.45	567.87
494.81	576.89
495.17	586.17
495.54	595.95
495.90	606.14
496.26	616.51
496.63	627.17
496.99	638.24
497.35	649.79
497.72	661.61
498.08	673.81
498.44	686.30
498.80	699.50
499.17	712.99
499.53	726.91
499.89	741.23
500.26	755.76
500.62	770.61
500.98	786.27
501.34	802.01
501.71	818.56
502.07	835.35
502.43	852.61
502.79	870.01
503.16	887.94
503.52	906.02
503.88	924.55
504.24	943.50
504.60	962.69
504.97	982.54
505.33	1002.79
505.69	1024.02
506.05	1045.42
506.41	1066.66
506.78	1088.09
507.14	1110.12
507.50	1132.53
507.86	1155.35
508.22	1178.35
508.59	1201.19
508.95	1225.07
509.31	1249.33
509.67	1274.25
510.03	1299.01
510.39	1323.73
510.75	1348.51
511.12	1373.72
511.48	1398.92
511.84	1424.13
512.20	1449.69
512.56	1476.15
512.92	1502.41
513.28	1528.07
513.64	1554.08
514.00	1580.43
514.37	1607.01
514.73	1633.59
515.09	1659.43
515.45	1685.63
515.81	1711.87
516.17	1737.83
516.53	1763.12
516.89	1788.35
517.25	1813.79
517.61	1839.00
517.97	1864.83
518.33	1889.92
518.69	1914.82
519.05	1940.22
519.41	1965.63
519.77	1990.96
520.13	2014.85
520.49	2038.94
520.85	2063.26
521.21	2087.01
521.57	2111.04
521.93	2134.08
522.29	2157.63
522.65	2181.06
523.01	2204.12
523.37	2226.52
523.73	2249.66
524.09	2272.44
524.45	2294.69
524.81	2316.36
525.17	2337.73
525.53	2358.44
525.89	2379.50
526.25	2400.12
526.61	2419.23
526.97	2438.41
527.33	2457.35
527.68	2475.90
528.04	2494.07
528.40	2510.87
528.76	2527.99
529.12	2544.67
529.48	2561.70
529.84	2576.16
530.20	2591.06
530.56	2605.00
530.91	2619.18
531.27	2632.80
531.63	2645.44
531.99	2657.92
532.35	2669.84
532.71	2681.45
533.07	2693.29
533.42	2703.29
533.78	2713.68
534.14	2724.82
534.50	2734.79
534.86	2745.25
535.21	2753.76
535.57	2762.01
535.93	2770.25
536.29	2776.73
536.65	2782.96
537.00	2787.71
537.36	2793.87
537.72	2798.93
538.08	2803.47
538.44	2807.10
538.79	2810.31
539.15	2812.20
539.51	2813.46
539.87	2813.73
540.22	2812.43
540.58	2811.38
540.94	2811.35
541.29	2809.93
541.65	2807.19
542.01	2804.11
542.37	2799.56
542.72	2796.50
543.08	2791.87
543.44	2787.47
543.79	2782.50
544.15	2776.86
544.51	2771.62
544.87	2765.17
545.22	2757.91
545.58	2750.67
545.94	2743.47
546.29	2734.81
546.65	2726.51
547.01	2718.27
547.36	2710.28
547.72	2702.58
548.07	2693.15
548.43	2682.71
548.79	2672.06
549.14	2661.89
549.50	2651.76
549.86	2640.78
550.21	2628.20
550.57	2616.60
550.92	2603.40
551.28	2590.83
551.64	2578.46
551.99	2565.73
552.35	2552.61
552.70	2539.48
553.06	2526.69
553.41	2513.48
553.77	2500.14
554.13	2486.85
554.48	2472.53
554.84	2457.74
555.19	2443.42
555.55	2428.96
555.90	2414.81
556.26	2401.01
556.61	2386.09
556.97	2370.27
557.32	2354.90
557.68	2339.95
558.03	2324.78
558.39	2310.44
558.74	2296.59
559.10	2281.04
559.45	2265.89
559.81	2251.46
560.16	2236.68
560.52	2221.72
560.87	2206.88
561.23	2191.74
561.58	2177.05
561.94	2161.90
562.29	2146.27
562.64	2130.75
563.00	2115.54
563.35	2100.46
563.71	2085.05
564.06	2069.77
564.42	2055.11
564.77	2040.36
565.12	2025.46
565.48	2010.40
565.83	1995.69
566.19	1980.91
566.54	1966.41
566.89	1951.31
567.25	1935.97
567.60	1921.50
567.96	1906.25
568.31	1890.05
568.66	1874.81
569.02	1860.07
569.37	1845.90
569.72	1832.29
570.08	1818.30
570.43	1803.71
570.78	1788.95
571.14	1774.05
571.49	1759.29
571.84	1744.79
572.20	1729.31
572.55	1714.57
572.90	1699.84
573.26	1684.97
573.61	1669.54
573.96	1654.70
574.31	1639.66
574.67	1624.72
575.02	1609.41
575.37	1594.22
575.72	1579.64
576.08	1564.89
576.43	1549.58
576.78	1534.40
577.13	1519.44
577.49	1504.74
577.84	1490.40
578.19	1475.66
578.54	1460.99
578.90	1446.29
579.25	1431.51
579.60	1417.79
579.95	1403.81
580.30	1389.78
580.66	1375.53
581.01	1361.41
581.36	1347.47
581.71	1334.26
582.06	1320.91
582.42	1307.49
582.77	1294.52
583.12	1281.77
583.47	1268.90
583.82	1256.25
584.17	1243.27
584.53	1230.33
584.88	1217.60
585.23	1204.78
585.58	1192.35
585.93	1179.94
586.28	1168.39
586.63	1156.65
586.98	1144.63
587.34	1132.94
587.69	1121.13
588.04	1109.76
588.39	1098.58
588.74	1086.89
589.09	1075.46
589.44	1063.81
589.79	1052.64
590.14	1041.55
590.49	1030.57
590.84	1019.82
591.19	1009.28
591.54	998.84
591.89	988.02
592.25	977.61
592.60	967.10
592.95	956.71
593.30	946.58
593.65	936.21
594.00	926.12
594.35	916.89
594.70	907.01
595.05	897.71
595.40	888.18
595.75	878.52
596.10	869.52
596.45	860.48
596.80	851.74
597.15	843.09
597.50	834.44
597.85	825.92
598.19	817.41
598.54	808.97
598.89	800.97
599.24	793.36
599.59	785.54
599.94	778.31
600.29	771.05
600.64	763.72
600.99	756.28
601.34	749.04
601.69	741.33
602.04	734.44
602.39	727.46
602.74	720.63
603.08	714.00
603.43	707.32
603.78	700.60
604.13	694.01
604.48	687.46
604.83	681.10
605.18	674.81
605.53	668.70
605.87	662.51
606.22	656.46
606.57	650.33
606.92	644.14
607.27	637.96
607.62	632.03
607.96	626.31
608.31	620.99
608.66	615.63
609.01	610.50
609.36	605.31
609.70	600.05
610.05	594.88
610.40	589.82
610.75	584.79
611.10	579.95
611.44	575.10
611.79	570.34
612.14	565.54
612.49	560.84
612.83	556.34
613.18	551.89
613.53	547.45
613.88	543.17
614.22	539.18
614.57	535.12
614.92	531.11
615.27	527.25
615.61	523.30
615.96	519.36
616.31	515.43
616.65	511.69
617.00	508.04
617.35	504.39
617.70	500.81
618.04	497.31
618.39	493.89
618.74	490.71
619.08	487.51
619.43	484.37
619.78	481.20
620.12	478.05
620.47	475.11
620.82	472.18
621.16	469.27
621.51	466.42
621.85	463.58
622.20	460.81
622.55	457.99
622.89	455.24
623.24	452.67
623.59	450.13
623.93	447.63
624.28	445.29
624.62	443.16
624.97	440.98
625.32	438.72
625.66	436.43
626.01	434.12
626.35	431.93
626.70	429.67
627.04	427.63
627.39	425.52
627.73	423.50
628.08	421.56
628.43	419.61
628.77	417.58
629.12	415.70
629.46	413.91
629.81	412.23
630.15	410.48
630.50	408.72
630.84	407.00
631.19	405.35
631.53	403.74
631.88	401.95
632.22	400.30
632.57	398.88
632.91	397.44
633.26	396.06
633.60	394.69
633.95	393.42
634.29	392.00
634.64	390.64
634.98	389.15
635.32	387.85
635.67	386.66
636.01	385.46
636.36	384.28
636.70	383.21
637.05	381.97
637.39	380.86
637.73	379.76
638.08	378.73
638.42	377.74
638.77	376.61
639.11	375.47
639.45	374.34
639.80	373.16
640.14	372.07
640.49	370.98
640.83	369.87
641.17	368.81
641.52	367.78
641.86	366.76
642.20	365.91
642.55	364.84
642.89	363.82
643.23	362.87
643.58	362.02
643.92	361.01
644.26	360.09
644.61	359.21
644.95	358.28
645.29	357.27
645.64	356.24
645.98	355.34
646.32	354.54
646.66	353.69
647.01	352.85
647.35	352.09
647.69	351.28
648.04	350.57
648.38	349.79
648.72	349.04
649.06	348.28
649.41	347.46
649.75	346.74
650.09	346.05
650.43	345.29
650.78	344.53
651.12	343.79
651.46	343.06
651.80	342.34
652.14	341.68
652.49	341.07
652.83	340.40
653.17	339.70
653.51	339.03
653.85	338.45
654.20	337.82
654.54	337.11
654.88	336.42
655.22	335.78
655.56	335.11
655.90	334.46
656.25	333.85
656.59	333.25
656.93	332.66
657.27	332.12
657.61	331.52
657.95	330.96
658.29	330.38
658.64	329.83
658.98	329.23
659.32	328.62
659.66	328.07
660.00	327.56
660.34	327.04
660.68	326.46
661.02	325.81
661.36	325.23
661.70	324.69
662.05	324.17
662.39	323.64
662.73	323.18
663.07	322.77
663.41	322.31
663.75	321.79
664.09	321.28
664.43	320.64
664.77	320.12
665.11	319.55
665.45	319.04
665.79	318.55
666.13	318.01
666.47	317.47
666.81	316.89
667.15	316.29
667.49	315.81
667.83	315.39
668.17	314.94
668.51	314.52
668.85	314.11
669.19	313.72
669.53	313.19
669.87	312.65
670.21	312.11
670.55	311.57
670.89	311.18
671.23	310.74
671.57	310.36
671.91	310.00
672.25	309.65
672.58	309.31
672.92	308.85
673.26	308.50
673.60	308.14
673.94	307.78
674.28	307.43
674.62	307.06
674.96	306.61
675.30	306.21
675.64	305.75
675.97	305.28
676.31	304.79
676.65	304.36
676.99	304.04
677.33	303.59
677.67	303.22
678.01	302.74
678.34	302.30
678.68	301.91
679.02	301.44
679.36	301.00
679.70	300.52
680.04	300.13
680.37	299.73
680.71	299.34
681.05	298.97
681.39	298.54
681.73	298.06
682.06	297.63
682.40	297.23
682.74	296.88
683.08	296.59
683.42	296.21
683.75	295.86
684.09	295.39
684.43	295.00
684.77	294.56
685.10	294.19
685.44	293.80
685.78	293.38
686.12	292.96
686.45	292.55
686.79	292.12
687.13	291.71
687.46	291.26
687.80	290.84
688.14	290.37
688.48	289.95
688.81	289.56
689.15	289.21
689.49	288.78
689.82	288.34
690.16	287.81
690.50	287.35
690.83	286.91
691.17	286.46
691.51	286.03
691.84	285.66
692.18	285.22
692.52	284.76
692.85	284.33
693.19	283.98
693.52	283.55
693.86	283.13
694.20	282.69
694.53	282.29
694.87	281.84
695.21	281.41
695.54	280.98
695.88	280.54
696.21	280.06
696.55	279.62
696.88	279.19
697.22	278.78
697.56	278.39
697.89	277.94
698.23	277.54
698.56	277.11
698.90	276.70
699.23	276.25
699.57	275.87
699.90	275.45
700.24	275.00
700.58	274.62
700.91	274.29
701.25	274.07
701.58	273.76
701.92	273.43
702.25	273.07
702.59	272.68
702.92	272.29
703.26	271.91
703.59	271.54
703.93	271.31
704.26	270.95
704.60	270.58
704.93	270.21
705.26	269.83
705.60	269.51
705.93	269.11
706.27	268.83
706.60	268.51
706.94	268.22
707.27	267.84
707.61	267.47
707.94	267.07
708.27	266.55
708.61	266.11
708.94	265.72
709.28	265.37
709.61	265.02
709.94	264.71
710.28	264.38
710.61	264.07
710.95	263.58
711.28	263.37
711.61	263.03
711.95	262.74
712.28	262.40
712.61	262.05
712.95	261.83
713.28	261.57
713.61	261.22
713.95	260.86
714.28	260.55
714.61	260.24
714.95	259.95
715.28	259.63
715.61	259.35
715.95	259.07
716.28	258.76
716.61	258.51
716.95	258.20
717.28	257.92
717.61	257.63
717.94	257.37
718.28	256.97
718.61	256.69
718.94	256.37
719.27	256.12
719.61	255.88
719.94	255.58
720.27	255.22
720.60	254.97
720.94	254.71
721.27	254.46
721.60	254.23
721.93	253.95
722.27	253.76
722.60	253.52
722.93	253.25
723.26	253.04
723.59	252.75
723.93	252.55
724.26	252.32
724.59	252.08
724.92	251.87
725.25	251.71
725.59	251.48
725.92	251.29
726.25	251.07
726.58	250.85
726.91	250.60
727.24	250.40
727.57	250.18
727.91	249.93
728.24	249.75
728.57	249.53
728.90	249.35
729.23	249.08
729.56	248.96
729.89	248.77
730.22	248.57
730.55	248.38
730.89	248.19
731.22	247.98
731.55	247.79
731.88	247.59
732.21	247.36
732.54	247.17
732.87	246.99
733.20	246.81
733.53	246.63
733.86	246.49
734.19	246.30
734.52	246.16
734.85	246.13
735.18	245.93
735.51	245.81
735.84	245.66
736.17	245.56
736.50	245.30
736.83	245.34
737.16	245.19
737.49	245.03
737.82	244.86
738.15	244.73
738.48	244.58
738.81	244.41
739.14	244.25
739.47	244.09
739.80	243.92
740.13	243.78
740.46	243.60
740.79	243.41
741.12	243.25
741.45	243.06
741.78	242.82
742.11	242.73
742.44	242.55
742.77	242.42
743.10	242.25
743.43	242.10
743.75	241.77
744.08	241.89
744.41	241.75
744.74	241.59
745.07	241.42
745.40	241.32
745.73	241.27
746.06	241.16
746.39	241.04
746.71	240.92
747.04	240.77
747.37	240.65
747.70	240.55
748.03	240.45
748.36	240.35
748.68	240.22
749.01	240.05
749.34	239.93
749.67	239.82
750.00	239.71
750.33	239.72
750.65	239.63
750.98	239.26
751.31	239.15
751.64	239.05
751.97	239.03
752.29	238.90
752.62	238.72
752.95	238.59
753.28	238.46
753.60	238.33
753.93	238.28
754.26	238.19
754.59	238.04
754.91	237.92
755.24	237.78
755.57	237.69
755.90	237.59
756.22	237.47
756.55	237.33
756.88	237.20
757.20	237.00
757.53	236.84
757.86	236.74
758.19	236.66
758.51	236.56
758.84	236.39
759.17	236.28
759.49	236.20
759.82	236.19
760.15	236.12
760.47	236.03
760.80	235.89
761.13	235.82
761.45	235.73
761.78	235.65
762.11	235.59
762.43	235.47
762.76	235.39
763.08	235.32
763.41	235.27
763.74	235.20
764.06	235.12
764.39	235.06
764.71	234.98
765.04	234.89
765.37	234.80
765.69	234.73
766.02	234.67
766.34	234.57
766.67	234.43
767.00	234.40
767.32	234.43
767.65	234.48
767.97	234.41
768.30	234.38
768.62	234.31
768.95	234.23
769.27	234.17
769.60	234.13
769.92	234.05
770.25	233.95
770.57	233.86
770.90	233.80
771.22	233.74
771.55	233.69
771.87	233.65
772.20	233.59
772.52	233.67
772.85	233.82
773.17	233.78
773.50	233.72
773.82	233.64
774.15	233.50
774.47	233.34
774.80	233.27
775.12	233.20
775.45	233.15
775.77	233.12
776.09	233.09
776.42	233.04
776.74	233.05
777.07	233.02
777.39	232.99
777.72	232.94
778.04	232.92
778.36	232.87
778.69	232.82
779.01	232.79
779.33	232.61
779.66	232.37
779.98	232.33
780.31	232.30
780.63	232.34
780.95	232.33
781.28	232.28
781.60	232.23
781.92	232.19
782.25	232.17
782.57	232.12
782.89	232.08
783.22	232.02
783.54	231.96
783.86	231.94
784.19	231.89
784.51	231.91
784.83	231.85
785.16	231.82
785.48	231.79
785.80	231.76
786.12	231.74
786.45	231.72
786.77	231.70
787.09	231.67
787.42	231.57
787.74	231.55
788.06	231.53
788.38	231.50
788.71	231.47
789.03	231.44
789.35	231.44
789.67	231.40
789.99	231.40
790.32	231.36
790.64	231.34
790.96	231.48
791.28	231.40
791.61	231.38
791.93	231.35
792.25	231.32
792.57	231.43
792.89	231.37
793.21	231.35
793.54	231.31
793.86	231.26
794.18	231.25
794.50	231.19
794.82	231.17
795.14	231.17
795.47	231.17
795.79	231.15
796.11	231.08
796.43	231.06
796.75	231.03
797.07	231.00
797.39	230.97
797.71	230.81
798.04	230.79
798.36	230.78
798.68	230.75
799.00	230.73
799.32	230.62
799.64	230.64
799.96	230.60
800.28	230.62
800.60	230.60
800.92	230.58
801.24	230.55
801.56	230.54
801.89	230.51
802.21	230.50
802.53	230.46
802.85	230.48
803.17	230.52
803.49	230.47
803.81	230.44
804.13	230.40
804.45	230.36
804.77	230.35
805.09	230.33
805.41	230.30
805.73	230.25
806.05	230.20
806.37	230.16
806.69	230.13
807.01	230.10
807.33	230.10
807.65	230.02
807.97	230.08
808.28	230.04
808.60	230.02
808.92	229.97
809.24	230.07
809.56	230.03
809.88	229.97
810.20	229.96
810.52	229.99
810.84	229.96
811.16	229.93
811.48	229.91
811.80	229.96
812.12	229.94
812.43	229.98
812.75	229.97
813.07	229.96
813.39	229.95
813.71	229.91
814.03	229.89
814.35	229.89
814.67	229.81
814.98	229.79
815.30	229.78
815.62	229.74
815.94	229.62
816.26	229.62
816.58	229.58
816.89	229.58
817.21	229.53
817.53	229.54
817.85	229.54
818.17	229.52
818.48	229.44
818.80	229.47
819.12	229.42
819.44	229.39
819.76	229.34
820.07	229.33
820.39	229.32
820.71	229.32
821.03	229.32
821.34	229.29
821.66	229.31
821.98	229.31
822.30	229.30
822.61	229.40
822.93	229.36
823.25	229.35
823.57	229.34
823.88	229.34
824.20	229.33
824.52	229.35
824.83	229.34
825.15	229.32
825.47	229.29
825.79	229.30
826.10	229.29
826.42	229.29
826.74	229.30
827.05	229.29
827.37	229.28
827.69	229.27
828.00	229.28
828.32	229.28
828.64	229.25
828.95	229.35
829.27	229.29
829.58	229.28
829.90	229.31
830.22	229.31
830.53	229.28
830.85	229.25
831.17	229.20
831.48	229.19
831.80	229.19
832.11	229.18
832.43	229.14
832.75	229.13
833.06	229.23
833.38	229.18
833.69	229.17
834.01	229.18
834.32	229.16
834.64	229.13
834.96	229.12
835.27	229.12
835.59	229.05
835.90	229.02
836.22	229.02
836.53	228.98
836.85	228.96
837.16	229.14
837.48	229.14
837.79	229.19
838.11	229.19
838.42	229.19
838.74	229.21
839.05	229.20
839.37	229.18
839.68	229.07
840.00	229.06
840.31	229.09
840.63	229.06
840.94	229.05
841.26	229.02
841.57	229.02
841.88	229.03
842.20	229.00
842.51	228.96
842.83	228.96
843.14	229.12
843.46	229.11
843.77	229.00
844.08	228.99
844.40	228.93
844.71	228.91
845.03	228.89
845.34	228.86
845.65	228.86
845.97	228.87
846.28	228.88
846.60	228.89
846.91	228.85
847.22	228.84
847.54	228.87
847.85	228.89
848.16	228.86
848.48	228.82
848.79	228.89
849.10	228.90
849.42	228.90
849.73	228.74
850.04	228.74
850.36	228.66
850.67	228.70
850.98	228.70
851.30	228.72
851.61	228.72
851.92	228.71
852.23	228.75
852.55	228.76
852.86	228.76
853.17	228.77
853.49	228.80
853.80	228.83
854.11	228.84
854.42	228.85
854.74	228.83
855.05	228.84
855.36	228.75
855.67	228.75
855.99	228.76
856.30	228.96
856.61	228.95
856.92	228.96
857.23	228.96
857.55	228.93
857.86	228.92
858.17	228.95
858.48	228.93
858.79	228.89
859.11	228.90
859.42	228.88
859.73	228.85
860.04	228.83
860.35	228.77
860.66	228.71
860.98	228.70
861.29	228.73
861.60	228.72
861.91	228.76
862.22	228.72
862.53	228.68
862.84	228.46
863.16	228.49
863.47	228.45
863.78	228.42
864.09	228.43
864.40	228.43
864.71	228.42
865.02	228.42
865.33	228.39
865.64	228.36
865.95	228.36
866.27	228.48
866.58	228.46
866.89	228.48
867.20	228.48
867.51	228.44
867.82	228.42
868.13	228.47
868.44	228.42
868.75	228.45
869.06	228.47
869.37	228.49
869.68	228.45
869.99	228.48
870.30	228.49
870.61	228.49
870.92	228.47
871.23	228.45
871.54	228.47
871.85	228.52
872.16	228.54
872.47	228.52
872.78	228.42
873.09	228.44
873.40	228.42
873.71	228.43
874.02	228.45
874.33	228.44
874.64	228.41
874.95	228.44
875.26	228.41
875.56	228.40
875.87	228.38
876.18	228.38
876.49	228.56
876.80	228.54
877.11	228.51
877.42	228.51
877.73	228.51
878.04	228.48
878.35	228.47
878.66	228.48
878.96	228.48
879.27	228.46
879.58	228.45
879.89	228.44
880.20	228.49
880.51	228.47
880.82	228.48
881.12	228.49
881.43	228.45
881.74	228.44
882.05	228.44
882.36	228.46
882.67	228.47
882.97	228.26
883.28	228.25
883.59	228.25
883.90	228.26
884.21	228.30
884.51	228.30
884.82	228.28
885.13	228.27
885.44	228.27
885.74	228.28
886.05	228.27
886.36	228.27
886.67	228.21
886.98	228.31
887.28	228.32
887.59	228.32
887.90	228.33
888.20	228.32
888.51	228.35
888.82	228.32
889.13	228.33
889.43	228.50
889.74	228.49
890.05	228.49
890.35	228.47
890.66	228.44
890.97	228.43
891.28	228.41
891.58	228.42
891.89	228.41
892.20	228.40
892.50	228.38
892.81	228.37
893.12	228.37
893.42	228.29
893.73	228.29
894.04	228.28
894.34	228.29
894.65	228.30
894.95	228.27
895.26	228.29
895.57	228.37
895.87	228.19
896.18	228.23
896.48	228.24
896.79	228.24
897.10	228.28
897.40	228.28
897.71	228.31
898.01	228.28
898.32	228.30
898.63	228.29
898.93	228.32
899.24	228.33
899.54	228.32
899.85	228.30
900.15	228.29
900.46	228.30
900.76	228.31
901.07	228.30
901.38	228.29
901.68	228.29
901.99	228.20
902.29	228.22
902.60	228.20
902.90	228.18
903.21	228.18
903.51	228.16
903.82	228.19
904.12	228.18
904.43	228.20
904.73	228.19
905.03	228.21
905.34	228.37
905.64	228.36
905.95	228.36
906.25	228.37
906.56	228.36
906.86	228.36
907.17	228.35
907.47	228.35
907.77	228.33
908.08	228.30
908.38	228.30
908.69	228.32
908.99	228.34
909.30	228.36
909.60	228.35
909.90	228.35
910.21	228.30
910.51	228.28
910.81	228.28
911.12	228.30
911.42	228.30
911.73	228.11
912.03	228.13
912.33	228.16
912.64	228.15
912.94	228.13
913.24	228.10
913.55	228.08
913.85	228.06
914.15	228.10
914.46	228.12
914.76	228.12
915.06	228.10
915.37	228.07
915.67	228.05
915.97	228.04
916.27	228.01
916.58	228.03
916.88	228.03
917.18	228.02
917.49	228.12
917.79	228.10
918.09	228.12
918.39	228.15
918.70	228.14
919.00	228.14
919.30	228.23
919.60	228.22
919.91	228.22
920.21	228.24
920.51	228.20
920.81	228.19
921.12	228.20
921.42	228.20
921.72	228.21
922.02	228.22
922.32	228.25
922.63	228.27
922.93	228.36
923.23	228.37
923.53	228.35
923.83	228.24
924.13	228.25
924.44	228.25
924.74	228.28
925.04	228.33
925.34	228.32
925.64	228.25
925.94	228.24
926.24	228.33
926.55	228.30
926.85	228.34
927.15	228.33
927.45	228.33
927.75	228.33
928.05	228.33
928.35	228.31
928.65	228.33
928.95	228.33
929.26	228.24
929.56	228.28
929.86	228.31
930.16	228.29
930.46	228.28
930.76	228.30
931.06	228.21
931.36	228.15
931.66	228.18
931.96	228.20
932.26	228.22
932.56	228.14
932.86	228.16
933.16	228.15
933.46	228.15
933.76	228.12
934.06	228.15
934.36	228.20
934.66	228.20
934.96	228.17
935.26	228.18
935.56	228.20
935.86	228.14
936.16	228.11
936.46	228.11
936.76	228.10
937.06	228.06
937.36	228.09
937.66	228.10
937.96	228.08
938.26	228.05
938.56	228.04
938.86	228.05
939.16	228.09
939.46	228.10
939.76	228.10
940.06	228.10
940.35	228.07
940.65	227.97
940.95	227.99
941.25	227.95
941.55	227.92
941.85	227.92
942.15	227.97
942.45	228.02
942.75	228.01
943.04	228.03
943.34	228.07
943.64	228.05
943.94	228.03
944.24	228.04
944.54	228.05
944.84	228.04
945.13	228.02
945.43	227.99
945.73	227.98
946.03	227.98
946.33	227.97
946.62	227.96
946.92	227.98
947.22	227.98
947.52	228.00
947.82	228.02
948.11	228.00
948.41	227.95
948.71	227.90
949.01	227.92
949.31	227.91
949.60	227.90
949.90	227.93
950.20	227.92
950.50	227.91
950.79	227.90
951.09	227.93
951.39	227.92
951.69	227.90
951.98	227.93
952.28	227.94
952.58	227.93
952.87	227.93
953.17	227.95
953.47	227.93
953.76	227.93
954.06	227.90
954.36	227.88
954.66	227.88
954.95	227.93
955.25	227.93
955.55	227.93
955.84	227.88
956.14	227.89
956.44	227.90
956.73	227.88
957.03	227.89
957.32	227.88
957.62	227.88
957.92	227.92
958.21	227.89
958.51	228.09
958.81	228.12
959.10	228.14
959.40	228.18
959.69	228.19
959.99	228.22
960.29	228.23
960.58	228.22
960.88	228.28
961.17	228.26
961.47	228.28
961.76	228.27
962.06	228.30
962.36	228.28
962.65	228.29
962.95	228.30
963.24	228.28
963.54	228.29
963.83	228.31
964.13	228.29
964.42	228.29
964.72	228.14
965.01	228.13
965.31	228.12
965.60	228.07
965.90	228.19
966.19	228.14
966.49	228.16
966.78	228.16
967.08	228.15
967.37	228.15
967.67	228.11
967.96	228.14
968.26	228.15
968.55	228.17
968.85	228.16
969.14	228.16
969.43	228.16
969.73	228.14
970.02	228.12
970.32	228.11
970.61	228.08
970.91	228.03
971.20	228.00
971.49	227.99
971.79	228.02
972.08	227.89
972.38	227.90
972.67	227.89
972.96	227.91
973.26	227.87
973.55	227.93
973.85	227.93
974.14	227.91
974.43	227.91
974.73	227.88
975.02	227.87
975.31	227.86
975.61	227.86
975.90	227.87
976.19	227.85
976.49	227.86
976.78	227.88
977.07	227.89
977.37	227.89
977.66	227.90
977.95	227.85
978.24	227.87
978.54	227.91
978.83	227.89
979.12	227.88
979.42	227.88
979.71	227.83
980.00	227.82
980.29	227.83
980.59	227.79
980.88	227.84
981.17	227.83
981.46	227.83
981.76	227.83
982.05	227.88
982.34	227.90
982.63	227.89
982.93	227.88
983.22	227.92
983.51	227.93
983.80	227.96
984.09	227.99
984.39	227.98
984.68	227.95
984.97	227.96
985.26	227.95
985.55	227.96
985.85	227.92
986.14	227.95
986.43	227.97
986.72	227.97
987.01	227.91
987.30	227.91
987.59	227.90
987.89	227.90
988.18	227.85
988.47	227.83
988.76	227.82
989.05	227.81
989.34	227.79
989.63	227.83
989.92	227.80
990.22	227.78
990.51	227.78
990.80	227.77
991.09	227.79
991.38	227.82
991.67	227.80
991.96	227.79
992.25	227.79
992.54	227.76
992.83	227.76
993.12	227.76
993.41	227.80
993.70	227.87
993.99	227.91
994.28	227.93
994.58	227.96
994.87	227.95
995.16	227.95
995.45	227.93
995.74	227.86
996.03	227.89
996.32	227.92
996.61	227.95
996.90	227.95
997.19	227.94
997.48	227.93
997.77	227.92
998.06	227.93
998.34	227.92
998.63	227.92
998.92	227.92
999.21	227.95
999.50	227.95
999.79	227.89
1000.08	227.87
1000.37	227.87
1000.66	227.84
1000.95	227.88
1001.24	227.89
1001.53	227.92
1001.82	227.92
1002.11	227.88
1002.40	227.90
1002.68	227.94
1002.97	228.06
1003.26	228.04
1003.55	228.03
1003.84	228.04
1004.13	228.11
1004.42	228.10
1004.71	228.10
1004.99	228.10
1005.28	228.14
1005.57	228.11
1005.86	228.10
1006.15	228.08
1006.44	228.06
1006.72	228.09
1007.01	228.06
1007.30	228.06
1007.59	228.05
1007.88	228.05
1008.17	228.06
1008.45	228.02
1008.74	227.94
1009.03	227.86
1009.32	227.87
1009.60	227.87
1009.89	227.86
1010.18	227.78
1010.47	227.78
1010.76	227.78
1011.04	227.77
1011.33	227.77
1011.62	227.79
1011.91	227.81
1012.19	227.82
1012.48	227.83
1012.77	227.82
1013.05	227.88
1013.34	227.88
1013.63	227.88
1013.92	227.90
1014.20	227.87
1014.49	227.88
1014.78	227.91
1015.06	227.85
1015.35	227.85
1015.64	227.86
1015.92	227.89
1016.21	227.91
1016.50	227.92
1016.78	227.94
1017.07	227.95
1017.36	227.93
1017.64	227.91
1017.93	227.93
1018.22	227.91
1018.50	227.91
1018.79	227.91
1019.08	227.84
1019.36	227.86
1019.65	227.84
1019.93	227.88
1020.22	227.92
1020.51	228.01
1020.79	227.99
1021.08	227.68
1021.36	227.65
1021.65	227.85
1021.94	227.86
1022.22	228.11
1022.51	227.61
1022.79	228.76
1023.08	228.07
1023.36	229.94
1023.65	227.48
>>>>>End Processed Spectral Data<<<<<
