SpectraSuite Data File
++++++++++++++++++++++++++++++++++++
Date: Tue Oct 06 15:34:33 EDT 2015
User: lab3
Dark Spectrum Present: No
Reference Spectrum Present: No
Number of Sampled Component Spectra: 1
Spectrometers: USB2E7196
Integration Time (usec): 66000 (USB2E7196)
Spectra Averaged: 1000 (USB2E7196)
Boxcar Smoothing: 10 (USB2E7196)
Correct for Electrical Dark: No (USB2E7196)
Strobe/Lamp Enabled: No (USB2E7196)
Correct for Detector Non-linearity: No (USB2E7196)
Correct for Stray Light: No (USB2E7196)
Number of Pixels in Processed Spectrum: 2048
>>>>>Begin Processed Spectral Data<<<<<
339.09	0.00
339.48	215.15
339.86	216.52
340.24	217.84
340.63	219.34
341.01	223.50
341.39	222.08
341.78	223.88
342.16	224.87
342.54	225.19
342.93	213.62
343.31	224.40
343.69	224.93
344.07	225.40
344.46	225.85
344.84	226.27
345.22	226.46
345.60	226.74
345.99	226.93
346.37	227.07
346.75	227.18
347.13	227.27
347.52	227.36
347.90	227.48
348.28	227.54
348.66	227.63
349.05	227.62
349.43	227.69
349.81	227.76
350.19	227.82
350.57	227.91
350.96	228.00
351.34	228.11
351.72	228.21
352.10	228.33
352.48	228.39
352.87	228.44
353.25	228.50
353.63	228.55
354.01	228.59
354.39	228.68
354.77	228.76
355.15	228.87
355.54	228.92
355.92	228.93
356.30	228.99
356.68	229.17
357.06	229.25
357.44	229.28
357.82	229.33
358.20	229.54
358.58	229.60
358.97	229.65
359.35	229.74
359.73	229.84
360.11	229.89
360.49	229.95
360.87	230.00
361.25	230.06
361.63	230.17
362.01	230.24
362.39	230.26
362.77	230.31
363.15	230.32
363.53	230.35
363.91	230.41
364.29	230.43
364.67	230.28
365.05	230.30
365.43	230.35
365.81	230.39
366.19	230.34
366.57	230.43
366.95	230.44
367.33	230.40
367.71	230.38
368.09	230.42
368.47	230.41
368.85	230.40
369.23	230.42
369.61	230.34
369.99	230.37
370.37	230.37
370.75	230.49
371.13	230.46
371.51	230.40
371.89	230.37
372.27	230.36
372.65	230.34
373.03	230.30
373.41	230.25
373.78	230.19
374.16	230.06
374.54	229.96
374.92	229.90
375.30	229.85
375.68	229.78
376.06	229.73
376.44	229.67
376.82	229.65
377.19	229.61
377.57	229.56
377.95	229.45
378.33	229.39
378.71	229.19
379.09	229.15
379.47	229.13
379.84	229.08
380.22	229.01
380.60	228.94
380.98	228.90
381.36	228.84
381.73	228.78
382.11	228.77
382.49	228.74
382.87	228.68
383.25	228.65
383.62	228.83
384.00	228.75
384.38	228.72
384.76	228.70
385.13	228.71
385.51	228.68
385.89	228.63
386.27	228.60
386.64	228.60
387.02	228.55
387.40	228.50
387.78	228.47
388.15	228.45
388.53	228.44
388.91	228.41
389.29	228.38
389.66	228.39
390.04	228.35
390.42	228.36
390.79	228.36
391.17	228.34
391.55	228.12
391.92	228.13
392.30	228.15
392.68	228.11
393.05	228.10
393.43	228.11
393.81	228.13
394.18	228.11
394.56	228.12
394.94	228.18
395.31	228.19
395.69	228.26
396.06	228.32
396.44	228.35
396.82	228.37
397.19	228.51
397.57	228.53
397.95	228.60
398.32	228.59
398.70	228.66
399.07	228.76
399.45	228.83
399.82	228.90
400.20	228.94
400.58	229.04
400.95	229.05
401.33	229.18
401.70	229.40
402.08	229.54
402.45	229.67
402.83	229.84
403.20	230.01
403.58	230.15
403.95	230.34
404.33	230.57
404.71	230.79
405.08	231.10
405.46	231.35
405.83	231.62
406.21	231.92
406.58	232.24
406.96	232.56
407.33	232.93
407.70	233.34
408.08	233.92
408.45	234.42
408.83	234.97
409.20	235.45
409.58	235.92
409.95	236.55
410.33	237.21
410.70	237.86
411.08	238.61
411.45	239.41
411.82	240.23
412.20	241.16
412.57	242.26
412.95	243.15
413.32	244.30
413.69	245.49
414.07	246.74
414.44	248.10
414.82	249.50
415.19	251.14
415.56	252.81
415.94	254.57
416.31	256.51
416.68	258.47
417.06	260.74
417.43	262.85
417.81	265.30
418.18	267.81
418.55	270.51
418.93	273.36
419.30	276.32
419.67	279.46
420.04	282.69
420.42	286.08
420.79	289.96
421.16	293.88
421.54	297.87
421.91	302.04
422.28	306.38
422.66	311.04
423.03	315.48
423.40	320.14
423.77	325.12
424.15	330.23
424.52	335.52
424.89	341.25
425.26	346.95
425.64	352.22
426.01	358.15
426.38	364.22
426.75	370.43
427.13	376.80
427.50	383.48
427.87	390.41
428.24	397.38
428.61	404.08
428.99	411.27
429.36	419.19
429.73	426.76
430.10	434.29
430.47	441.99
430.85	449.97
431.22	458.48
431.59	467.19
431.96	475.69
432.33	485.14
432.70	494.14
433.08	504.78
433.45	514.80
433.82	524.70
434.19	535.81
434.56	546.73
434.93	557.34
435.30	567.85
435.68	579.77
436.05	591.41
436.42	603.07
436.79	613.77
437.16	625.36
437.53	637.78
437.90	650.19
438.27	662.38
438.64	675.54
439.01	687.46
439.38	698.43
439.75	709.03
440.13	721.11
440.50	732.60
440.87	741.80
441.24	751.92
441.61	762.97
441.98	771.14
442.35	780.86
442.72	790.74
443.09	800.13
443.46	806.26
443.83	810.95
444.20	814.82
444.57	820.44
444.94	823.75
445.31	827.17
445.68	830.10
446.05	832.34
446.42	832.06
446.79	831.53
447.16	831.10
447.53	830.74
447.90	827.18
448.27	823.77
448.64	818.37
449.01	814.68
449.37	807.06
449.74	800.14
450.11	791.19
450.48	781.33
450.85	771.45
451.22	762.96
451.59	754.59
451.96	747.03
452.33	736.03
452.70	726.29
453.07	714.46
453.43	702.68
453.80	691.15
454.17	680.11
454.54	669.91
454.91	658.39
455.28	647.54
455.65	637.33
456.02	626.51
456.38	617.82
456.75	606.68
457.12	597.65
457.49	588.55
457.86	579.92
458.23	572.31
458.59	563.98
458.96	555.41
459.33	547.89
459.70	540.23
460.07	534.38
460.43	527.49
460.80	521.02
461.17	515.40
461.54	509.34
461.91	503.65
462.27	497.89
462.64	493.18
463.01	487.77
463.38	482.31
463.74	477.42
464.11	473.06
464.48	469.12
464.85	464.88
465.21	461.62
465.58	458.01
465.95	453.94
466.32	450.69
466.68	447.48
467.05	444.24
467.42	441.11
467.78	437.76
468.15	434.68
468.52	432.41
468.88	429.41
469.25	426.69
469.62	424.52
469.98	422.14
470.35	420.02
470.72	418.13
471.08	416.20
471.45	414.56
471.82	412.73
472.18	410.83
472.55	409.59
472.92	408.05
473.28	406.85
473.65	405.57
474.02	404.34
474.38	403.29
474.75	402.68
475.11	401.84
475.48	401.44
475.85	401.02
476.21	400.77
476.58	400.59
476.94	400.76
477.31	400.80
477.67	400.88
478.04	401.22
478.41	401.65
478.77	402.26
479.14	402.65
479.50	403.45
479.87	404.47
480.23	405.47
480.60	406.43
480.96	407.40
481.33	408.84
481.69	410.26
482.06	411.66
482.42	412.95
482.79	414.58
483.15	416.47
483.52	418.59
483.88	420.63
484.25	422.77
484.61	425.03
484.98	427.48
485.34	430.21
485.71	433.06
486.07	436.11
486.44	439.12
486.80	442.53
487.17	446.02
487.53	449.79
487.90	453.73
488.26	458.03
488.62	462.54
488.99	467.06
489.35	471.80
489.72	476.93
490.08	482.31
490.44	487.79
490.81	493.51
491.17	499.38
491.54	505.68
491.90	512.12
492.26	518.98
492.63	526.19
492.99	533.72
493.36	541.40
493.72	549.43
494.08	557.69
494.45	566.32
494.81	575.32
495.17	584.60
495.54	594.39
495.90	604.62
496.26	615.01
496.63	625.68
496.99	636.76
497.35	648.35
497.72	660.18
498.08	672.37
498.44	684.87
498.80	698.07
499.17	711.57
499.53	725.53
499.89	739.88
500.26	754.37
500.62	769.25
500.98	784.95
501.34	800.74
501.71	817.28
502.07	834.08
502.43	851.37
502.79	868.82
503.16	886.77
503.52	904.91
503.88	923.47
504.24	942.51
504.60	961.76
504.97	981.59
505.33	1001.86
505.69	1023.14
506.05	1044.59
506.41	1065.93
506.78	1087.37
507.14	1109.47
507.50	1131.97
507.86	1154.88
508.22	1177.96
508.59	1200.80
508.95	1224.70
509.31	1249.05
509.67	1274.04
510.03	1298.93
510.39	1323.75
510.75	1348.63
511.12	1373.83
511.48	1399.11
511.84	1424.37
512.20	1449.94
512.56	1476.41
512.92	1502.76
513.28	1528.47
513.64	1554.53
514.00	1580.88
514.37	1607.56
514.73	1634.11
515.09	1660.04
515.45	1686.27
515.81	1712.54
516.17	1738.52
516.53	1763.81
516.89	1789.06
517.25	1814.52
517.61	1839.76
517.97	1865.57
518.33	1890.65
518.69	1915.62
519.05	1940.98
519.41	1966.41
519.77	1991.71
520.13	2015.66
520.49	2039.72
520.85	2064.11
521.21	2087.94
521.57	2112.07
521.93	2135.10
522.29	2158.79
522.65	2182.16
523.01	2205.27
523.37	2227.73
523.73	2250.97
524.09	2273.87
524.45	2296.20
524.81	2317.93
525.17	2339.33
525.53	2360.14
525.89	2381.33
526.25	2402.06
526.61	2421.32
526.97	2440.57
527.33	2459.70
527.68	2478.37
528.04	2496.61
528.40	2513.49
528.76	2530.60
529.12	2547.27
529.48	2564.50
529.84	2579.05
530.20	2594.08
530.56	2608.13
530.91	2622.40
531.27	2636.06
531.63	2648.78
531.99	2661.27
532.35	2673.24
532.71	2684.78
533.07	2696.66
533.42	2706.70
533.78	2717.05
534.14	2728.23
534.50	2738.25
534.86	2748.76
535.21	2757.37
535.57	2765.74
535.93	2774.07
536.29	2780.75
536.65	2787.07
537.00	2791.86
537.36	2797.93
537.72	2802.98
538.08	2807.55
538.44	2811.03
538.79	2814.34
539.15	2816.31
539.51	2817.72
539.87	2818.12
540.22	2816.98
540.58	2816.00
540.94	2815.93
541.29	2814.56
541.65	2811.89
542.01	2808.83
542.37	2804.27
542.72	2801.24
543.08	2796.67
543.44	2792.23
543.79	2787.15
544.15	2781.61
544.51	2776.32
544.87	2769.90
545.22	2762.68
545.58	2755.39
545.94	2748.29
546.29	2739.69
546.65	2731.34
547.01	2723.02
547.36	2715.01
547.72	2707.31
548.07	2697.83
548.43	2687.36
548.79	2676.74
549.14	2666.45
549.50	2656.32
549.86	2645.32
550.21	2632.74
550.57	2621.14
550.92	2607.90
551.28	2595.27
551.64	2582.78
551.99	2570.05
552.35	2557.01
552.70	2543.84
553.06	2531.11
553.41	2518.00
553.77	2504.53
554.13	2491.24
554.48	2476.94
554.84	2462.07
555.19	2447.72
555.55	2433.23
555.90	2419.06
556.26	2405.32
556.61	2390.45
556.97	2374.65
557.32	2359.27
557.68	2344.21
558.03	2328.94
558.39	2314.53
558.74	2300.69
559.10	2285.05
559.45	2269.87
559.81	2255.40
560.16	2240.57
560.52	2225.58
560.87	2210.62
561.23	2195.49
561.58	2180.72
561.94	2165.55
562.29	2149.92
562.64	2134.41
563.00	2119.18
563.35	2104.08
563.71	2088.62
564.06	2073.34
564.42	2058.59
564.77	2043.83
565.12	2028.97
565.48	2013.88
565.83	1999.18
566.19	1984.43
566.54	1970.04
566.89	1954.88
567.25	1939.52
567.60	1925.05
567.96	1909.79
568.31	1893.55
568.66	1878.18
569.02	1863.42
569.37	1849.22
569.72	1835.55
570.08	1821.47
570.43	1806.86
570.78	1792.09
571.14	1777.07
571.49	1762.17
571.84	1747.61
572.20	1732.11
572.55	1717.30
572.90	1702.52
573.26	1687.57
573.61	1672.09
573.96	1657.11
574.31	1642.07
574.67	1627.07
575.02	1611.75
575.37	1596.50
575.72	1581.87
576.08	1567.19
576.43	1551.84
576.78	1536.58
577.13	1521.59
577.49	1506.87
577.84	1492.53
578.19	1477.73
578.54	1463.04
578.90	1448.34
579.25	1433.56
579.60	1419.76
579.95	1405.75
580.30	1391.73
580.66	1377.51
581.01	1363.37
581.36	1349.39
581.71	1336.10
582.06	1322.71
582.42	1309.18
582.77	1296.18
583.12	1283.40
583.47	1270.43
583.82	1257.79
584.17	1244.80
584.53	1231.84
584.88	1219.07
585.23	1206.19
585.58	1193.73
585.93	1181.29
586.28	1169.70
586.63	1157.92
586.98	1145.87
587.34	1134.14
587.69	1122.27
588.04	1110.81
588.39	1099.58
588.74	1087.96
589.09	1076.54
589.44	1064.85
589.79	1053.70
590.14	1042.59
590.49	1031.57
590.84	1020.83
591.19	1010.24
591.54	999.79
591.89	988.93
592.25	978.52
592.60	967.97
592.95	957.59
593.30	947.47
593.65	937.09
594.00	927.05
594.35	917.81
594.70	907.95
595.05	898.68
595.40	889.13
595.75	879.49
596.10	870.43
596.45	861.34
596.80	852.56
597.15	843.86
597.50	835.18
597.85	826.70
598.19	818.18
598.54	809.70
598.89	801.65
599.24	794.01
599.59	786.19
599.94	778.95
600.29	771.73
600.64	764.36
600.99	756.89
601.34	749.61
601.69	741.90
602.04	734.98
602.39	727.95
602.74	721.13
603.08	714.45
603.43	707.75
603.78	701.01
604.13	694.41
604.48	687.84
604.83	681.46
605.18	675.18
605.53	669.04
605.87	662.86
606.22	656.78
606.57	650.65
606.92	644.41
607.27	638.22
607.62	632.24
607.96	626.51
608.31	621.16
608.66	615.75
609.01	610.58
609.36	605.38
609.70	600.11
610.05	594.93
610.40	589.87
610.75	584.80
611.10	579.96
611.44	575.13
611.79	570.37
612.14	565.56
612.49	560.80
612.83	556.28
613.18	551.80
613.53	547.36
613.88	543.06
614.22	539.08
614.57	534.99
614.92	530.96
615.27	527.09
615.61	523.13
615.96	519.21
616.31	515.28
616.65	511.50
617.00	507.82
617.35	504.18
617.70	500.57
618.04	497.08
618.39	493.65
618.74	490.44
619.08	487.21
619.43	484.06
619.78	480.87
620.12	477.72
620.47	474.75
620.82	471.80
621.16	468.88
621.51	466.02
621.85	463.19
622.20	460.44
622.55	457.61
622.89	454.86
623.24	452.26
623.59	449.70
623.93	447.23
624.28	444.87
624.62	442.73
624.97	440.58
625.32	438.31
625.66	436.03
626.01	433.70
626.35	431.53
626.70	429.29
627.04	427.25
627.39	425.15
627.73	423.13
628.08	421.21
628.43	419.27
628.77	417.23
629.12	415.35
629.46	413.52
629.81	411.84
630.15	410.07
630.50	408.32
630.84	406.62
631.19	404.95
631.53	403.36
631.88	401.57
632.22	399.88
632.57	398.48
632.91	397.04
633.26	395.66
633.60	394.29
633.95	393.00
634.29	391.59
634.64	390.24
634.98	388.77
635.32	387.44
635.67	386.23
636.01	385.04
636.36	383.87
636.70	382.81
637.05	381.55
637.39	380.45
637.73	379.34
638.08	378.31
638.42	377.31
638.77	376.18
639.11	375.03
639.45	373.91
639.80	372.72
640.14	371.64
640.49	370.55
640.83	369.45
641.17	368.37
641.52	367.33
641.86	366.32
642.20	365.47
642.55	364.42
642.89	363.40
643.23	362.44
643.58	361.58
643.92	360.57
644.26	359.67
644.61	358.78
644.95	357.87
645.29	356.87
645.64	355.85
645.98	354.93
646.32	354.11
646.66	353.27
647.01	352.43
647.35	351.66
647.69	350.87
648.04	350.15
648.38	349.39
648.72	348.65
649.06	347.90
649.41	347.09
649.75	346.35
650.09	345.62
650.43	344.88
650.78	344.12
651.12	343.39
651.46	342.65
651.80	341.94
652.14	341.27
652.49	340.65
652.83	339.98
653.17	339.28
653.51	338.61
653.85	338.04
654.20	337.42
654.54	336.68
654.88	335.99
655.22	335.36
655.56	334.66
655.90	334.01
656.25	333.37
656.59	332.77
656.93	332.20
657.27	331.67
657.61	331.06
657.95	330.50
658.29	329.92
658.64	329.39
658.98	328.79
659.32	328.20
659.66	327.66
660.00	327.15
660.34	326.63
660.68	326.06
661.02	325.41
661.36	324.81
661.70	324.28
662.05	323.75
662.39	323.21
662.73	322.76
663.07	322.35
663.41	321.87
663.75	321.34
664.09	320.81
664.43	320.19
664.77	319.67
665.11	319.06
665.45	318.54
665.79	318.03
666.13	317.49
666.47	316.93
666.81	316.35
667.15	315.73
667.49	315.24
667.83	314.82
668.17	314.36
668.51	313.94
668.85	313.52
669.19	313.15
669.53	312.61
669.87	312.06
670.21	311.52
670.55	310.99
670.89	310.59
671.23	310.16
671.57	309.79
671.91	309.42
672.25	309.08
672.58	308.73
672.92	308.28
673.26	307.92
673.60	307.55
673.94	307.18
674.28	306.86
674.62	306.48
674.96	306.02
675.30	305.63
675.64	305.18
675.97	304.71
676.31	304.22
676.65	303.78
676.99	303.46
677.33	303.01
677.67	302.62
678.01	302.12
678.34	301.69
678.68	301.27
679.02	300.81
679.36	300.36
679.70	299.91
680.04	299.52
680.37	299.11
680.71	298.73
681.05	298.35
681.39	297.91
681.73	297.43
682.06	297.00
682.40	296.60
682.74	296.24
683.08	295.93
683.42	295.56
683.75	295.21
684.09	294.72
684.43	294.31
684.77	293.88
685.10	293.51
685.44	293.11
685.78	292.71
686.12	292.31
686.45	291.90
686.79	291.45
687.13	291.03
687.46	290.57
687.80	290.14
688.14	289.65
688.48	289.23
688.81	288.81
689.15	288.47
689.49	288.03
689.82	287.58
690.16	287.05
690.50	286.59
690.83	286.15
691.17	285.70
691.51	285.29
691.84	284.91
692.18	284.46
692.52	283.99
692.85	283.55
693.19	283.17
693.52	282.74
693.86	282.33
694.20	281.90
694.53	281.50
694.87	281.04
695.21	280.61
695.54	280.19
695.88	279.75
696.21	279.26
696.55	278.82
696.88	278.39
697.22	277.97
697.56	277.59
697.89	277.14
698.23	276.74
698.56	276.31
698.90	275.90
699.23	275.46
699.57	275.07
699.90	274.65
700.24	274.20
700.58	273.81
700.91	273.44
701.25	273.21
701.58	272.90
701.92	272.58
702.25	272.23
702.59	271.85
702.92	271.47
703.26	271.08
703.59	270.69
703.93	270.45
704.26	270.10
704.60	269.71
704.93	269.34
705.26	268.96
705.60	268.62
705.93	268.20
706.27	267.91
706.60	267.60
706.94	267.32
707.27	266.93
707.61	266.56
707.94	266.18
708.27	265.66
708.61	265.22
708.94	264.81
709.28	264.44
709.61	264.08
709.94	263.76
710.28	263.44
710.61	263.14
710.95	262.65
711.28	262.42
711.61	262.07
711.95	261.79
712.28	261.45
712.61	261.10
712.95	260.89
713.28	260.64
713.61	260.28
713.95	259.91
714.28	259.62
714.61	259.29
714.95	258.98
715.28	258.67
715.61	258.38
715.95	258.11
716.28	257.81
716.61	257.57
716.95	257.26
717.28	256.97
717.61	256.68
717.94	256.41
718.28	256.02
718.61	255.74
718.94	255.44
719.27	255.19
719.61	254.95
719.94	254.63
720.27	254.27
720.60	254.02
720.94	253.76
721.27	253.51
721.60	253.29
721.93	253.05
722.27	252.85
722.60	252.62
722.93	252.35
723.26	252.13
723.59	251.86
723.93	251.64
724.26	251.42
724.59	251.19
724.92	250.96
725.25	250.80
725.59	250.58
725.92	250.38
726.25	250.16
726.58	249.94
726.91	249.72
727.24	249.54
727.57	249.32
727.91	249.09
728.24	248.89
728.57	248.68
728.90	248.48
729.23	248.22
729.56	248.10
729.89	247.92
730.22	247.70
730.55	247.50
730.89	247.29
731.22	247.09
731.55	246.90
731.88	246.72
732.21	246.51
732.54	246.32
732.87	246.14
733.20	245.97
733.53	245.80
733.86	245.63
734.19	245.42
734.52	245.28
734.85	245.24
735.18	245.05
735.51	244.94
735.84	244.79
736.17	244.68
736.50	244.42
736.83	244.46
737.16	244.32
737.49	244.17
737.82	243.99
738.15	243.86
738.48	243.70
738.81	243.52
739.14	243.32
739.47	243.15
739.80	242.98
740.13	242.84
740.46	242.66
740.79	242.49
741.12	242.33
741.45	242.15
741.78	241.89
742.11	241.77
742.44	241.57
742.77	241.44
743.10	241.26
743.43	241.11
743.75	240.78
744.08	240.91
744.41	240.76
744.74	240.62
745.07	240.44
745.40	240.35
745.73	240.30
746.06	240.19
746.39	240.09
746.71	239.95
747.04	239.80
747.37	239.67
747.70	239.57
748.03	239.45
748.36	239.36
748.68	239.24
749.01	239.08
749.34	238.97
749.67	238.84
750.00	238.75
750.33	238.78
750.65	238.67
750.98	238.30
751.31	238.19
751.64	238.10
751.97	238.08
752.29	237.95
752.62	237.75
752.95	237.64
753.28	237.51
753.60	237.40
753.93	237.33
754.26	237.24
754.59	237.08
754.91	236.95
755.24	236.83
755.57	236.74
755.90	236.63
756.22	236.52
756.55	236.40
756.88	236.25
757.20	236.03
757.53	235.88
757.86	235.77
758.19	235.69
758.51	235.59
758.84	235.42
759.17	235.32
759.49	235.25
759.82	235.25
760.15	235.18
760.47	235.10
760.80	234.96
761.13	234.91
761.45	234.83
761.78	234.77
762.11	234.69
762.43	234.58
762.76	234.50
763.08	234.43
763.41	234.37
763.74	234.31
764.06	234.22
764.39	234.16
764.71	234.08
765.04	233.99
765.37	233.92
765.69	233.84
766.02	233.76
766.34	233.67
766.67	233.52
767.00	233.48
767.32	233.52
767.65	233.56
767.97	233.47
768.30	233.42
768.62	233.36
768.95	233.28
769.27	233.21
769.60	233.18
769.92	233.10
770.25	233.01
770.57	232.93
770.90	232.88
771.22	232.80
771.55	232.75
771.87	232.70
772.20	232.63
772.52	232.72
772.85	232.88
773.17	232.84
773.50	232.78
773.82	232.70
774.15	232.55
774.47	232.39
774.80	232.32
775.12	232.27
775.45	232.22
775.77	232.18
776.09	232.16
776.42	232.11
776.74	232.12
777.07	232.07
777.39	232.03
777.72	231.97
778.04	231.95
778.36	231.89
778.69	231.85
779.01	231.84
779.33	231.66
779.66	231.42
779.98	231.37
780.31	231.34
780.63	231.37
780.95	231.37
781.28	231.33
781.60	231.29
781.92	231.24
782.25	231.20
782.57	231.16
782.89	231.12
783.22	231.07
783.54	231.01
783.86	230.99
784.19	230.95
784.51	230.98
784.83	230.93
785.16	230.91
785.48	230.88
785.80	230.85
786.12	230.82
786.45	230.79
786.77	230.77
787.09	230.72
787.42	230.63
787.74	230.59
788.06	230.57
788.38	230.54
788.71	230.50
789.03	230.48
789.35	230.48
789.67	230.43
789.99	230.41
790.32	230.36
790.64	230.35
790.96	230.50
791.28	230.40
791.61	230.36
791.93	230.34
792.25	230.30
792.57	230.38
792.89	230.34
793.21	230.33
793.54	230.27
793.86	230.24
794.18	230.21
794.50	230.15
794.82	230.13
795.14	230.13
795.47	230.14
795.79	230.12
796.11	230.05
796.43	230.03
796.75	230.00
797.07	229.98
797.39	229.94
797.71	229.77
798.04	229.76
798.36	229.76
798.68	229.73
799.00	229.73
799.32	229.62
799.64	229.63
799.96	229.61
800.28	229.64
800.60	229.61
800.92	229.61
801.24	229.60
801.56	229.59
801.89	229.56
802.21	229.54
802.53	229.50
802.85	229.52
803.17	229.59
803.49	229.54
803.81	229.51
804.13	229.47
804.45	229.43
804.77	229.44
805.09	229.40
805.41	229.37
805.73	229.32
806.05	229.26
806.37	229.23
806.69	229.19
807.01	229.17
807.33	229.17
807.65	229.09
807.97	229.16
808.28	229.11
808.60	229.09
808.92	229.05
809.24	229.15
809.56	229.10
809.88	229.02
810.20	229.02
810.52	229.04
810.84	229.01
811.16	228.97
811.48	228.94
811.80	228.99
812.12	228.98
812.43	229.01
812.75	229.02
813.07	228.99
813.39	228.99
813.71	228.94
814.03	228.90
814.35	228.89
814.67	228.81
814.98	228.78
815.30	228.76
815.62	228.73
815.94	228.60
816.26	228.62
816.58	228.57
816.89	228.57
817.21	228.53
817.53	228.53
817.85	228.54
818.17	228.52
818.48	228.45
818.80	228.47
819.12	228.42
819.44	228.39
819.76	228.36
820.07	228.35
820.39	228.33
820.71	228.34
821.03	228.34
821.34	228.32
821.66	228.34
821.98	228.35
822.30	228.34
822.61	228.45
822.93	228.41
823.25	228.40
823.57	228.37
823.88	228.38
824.20	228.37
824.52	228.38
824.83	228.37
825.15	228.34
825.47	228.31
825.79	228.32
826.10	228.29
826.42	228.29
826.74	228.29
827.05	228.29
827.37	228.28
827.69	228.26
828.00	228.27
828.32	228.25
828.64	228.22
828.95	228.31
829.27	228.24
829.58	228.23
829.90	228.25
830.22	228.25
830.53	228.22
830.85	228.20
831.17	228.14
831.48	228.13
831.80	228.14
832.11	228.13
832.43	228.09
832.75	228.10
833.06	228.18
833.38	228.13
833.69	228.11
834.01	228.11
834.32	228.10
834.64	228.06
834.96	228.05
835.27	228.04
835.59	227.97
835.90	227.94
836.22	227.93
836.53	227.90
836.85	227.87
837.16	228.05
837.48	228.04
837.79	228.10
838.11	228.10
838.42	228.09
838.74	228.10
839.05	228.10
839.37	228.09
839.68	227.97
840.00	227.97
840.31	227.99
840.63	227.97
840.94	227.94
841.26	227.92
841.57	227.92
841.88	227.94
842.20	227.91
842.51	227.88
842.83	227.87
843.14	228.02
843.46	228.02
843.77	227.90
844.08	227.89
844.40	227.84
844.71	227.82
845.03	227.80
845.34	227.77
845.65	227.76
845.97	227.76
846.28	227.76
846.60	227.76
846.91	227.73
847.22	227.72
847.54	227.76
847.85	227.77
848.16	227.75
848.48	227.70
848.79	227.77
849.10	227.77
849.42	227.79
849.73	227.63
850.04	227.62
850.36	227.56
850.67	227.59
850.98	227.59
851.30	227.60
851.61	227.60
851.92	227.59
852.23	227.65
852.55	227.66
852.86	227.67
853.17	227.68
853.49	227.71
853.80	227.76
854.11	227.77
854.42	227.78
854.74	227.77
855.05	227.78
855.36	227.69
855.67	227.70
855.99	227.69
856.30	227.89
856.61	227.89
856.92	227.90
857.23	227.91
857.55	227.88
857.86	227.87
858.17	227.90
858.48	227.87
858.79	227.82
859.11	227.83
859.42	227.82
859.73	227.80
860.04	227.79
860.35	227.73
860.66	227.67
860.98	227.67
861.29	227.69
861.60	227.68
861.91	227.73
862.22	227.70
862.53	227.69
862.84	227.48
863.16	227.51
863.47	227.48
863.78	227.44
864.09	227.47
864.40	227.48
864.71	227.48
865.02	227.50
865.33	227.49
865.64	227.46
865.95	227.47
866.27	227.57
866.58	227.57
866.89	227.60
867.20	227.60
867.51	227.57
867.82	227.56
868.13	227.61
868.44	227.57
868.75	227.60
869.06	227.61
869.37	227.64
869.68	227.59
869.99	227.62
870.30	227.63
870.61	227.64
870.92	227.61
871.23	227.60
871.54	227.62
871.85	227.66
872.16	227.68
872.47	227.66
872.78	227.57
873.09	227.58
873.40	227.55
873.71	227.56
874.02	227.57
874.33	227.55
874.64	227.52
874.95	227.55
875.26	227.52
875.56	227.51
875.87	227.49
876.18	227.49
876.49	227.67
876.80	227.65
877.11	227.61
877.42	227.62
877.73	227.61
878.04	227.58
878.35	227.57
878.66	227.57
878.96	227.57
879.27	227.56
879.58	227.54
879.89	227.53
880.20	227.57
880.51	227.56
880.82	227.57
881.12	227.58
881.43	227.54
881.74	227.51
882.05	227.50
882.36	227.50
882.67	227.52
882.97	227.31
883.28	227.30
883.59	227.30
883.90	227.31
884.21	227.33
884.51	227.32
884.82	227.29
885.13	227.28
885.44	227.26
885.74	227.27
886.05	227.26
886.36	227.26
886.67	227.20
886.98	227.29
887.28	227.31
887.59	227.30
887.90	227.30
888.20	227.29
888.51	227.33
888.82	227.32
889.13	227.33
889.43	227.50
889.74	227.49
890.05	227.48
890.35	227.46
890.66	227.42
890.97	227.41
891.28	227.39
891.58	227.39
891.89	227.41
892.20	227.39
892.50	227.36
892.81	227.35
893.12	227.35
893.42	227.25
893.73	227.25
894.04	227.24
894.34	227.25
894.65	227.25
894.95	227.22
895.26	227.23
895.57	227.29
895.87	227.10
896.18	227.14
896.48	227.15
896.79	227.15
897.10	227.18
897.40	227.19
897.71	227.21
898.01	227.20
898.32	227.21
898.63	227.20
898.93	227.22
899.24	227.22
899.54	227.21
899.85	227.21
900.15	227.19
900.46	227.19
900.76	227.20
901.07	227.20
901.38	227.19
901.68	227.21
901.99	227.12
902.29	227.13
902.60	227.11
902.90	227.09
903.21	227.09
903.51	227.07
903.82	227.11
904.12	227.11
904.43	227.11
904.73	227.11
905.03	227.11
905.34	227.29
905.64	227.28
905.95	227.29
906.25	227.28
906.56	227.29
906.86	227.29
907.17	227.27
907.47	227.28
907.77	227.26
908.08	227.22
908.38	227.22
908.69	227.25
908.99	227.28
909.30	227.30
909.60	227.29
909.90	227.29
910.21	227.24
910.51	227.21
910.81	227.21
911.12	227.22
911.42	227.22
911.73	227.02
912.03	227.04
912.33	227.07
912.64	227.07
912.94	227.05
913.24	227.03
913.55	227.03
913.85	227.02
914.15	227.05
914.46	227.08
914.76	227.06
915.06	227.04
915.37	227.00
915.67	227.00
915.97	227.01
916.27	226.99
916.58	227.01
916.88	227.00
917.18	227.00
917.49	227.12
917.79	227.11
918.09	227.15
918.39	227.20
918.70	227.19
919.00	227.20
919.30	227.29
919.60	227.27
919.91	227.25
920.21	227.25
920.51	227.21
920.81	227.20
921.12	227.23
921.42	227.23
921.72	227.24
922.02	227.25
922.32	227.29
922.63	227.29
922.93	227.39
923.23	227.40
923.53	227.37
923.83	227.24
924.13	227.26
924.44	227.26
924.74	227.27
925.04	227.32
925.34	227.31
925.64	227.23
925.94	227.24
926.24	227.34
926.55	227.33
926.85	227.36
927.15	227.36
927.45	227.36
927.75	227.37
928.05	227.37
928.35	227.35
928.65	227.36
928.95	227.37
929.26	227.27
929.56	227.31
929.86	227.34
930.16	227.34
930.46	227.33
930.76	227.33
931.06	227.25
931.36	227.21
931.66	227.24
931.96	227.26
932.26	227.27
932.56	227.19
932.86	227.22
933.16	227.21
933.46	227.21
933.76	227.18
934.06	227.20
934.36	227.26
934.66	227.25
934.96	227.23
935.26	227.24
935.56	227.26
935.86	227.22
936.16	227.20
936.46	227.18
936.76	227.17
937.06	227.14
937.36	227.16
937.66	227.16
937.96	227.14
938.26	227.10
938.56	227.09
938.86	227.10
939.16	227.13
939.46	227.14
939.76	227.15
940.06	227.16
940.35	227.13
940.65	227.03
940.95	227.05
941.25	227.00
941.55	226.98
941.85	226.96
942.15	227.00
942.45	227.05
942.75	227.05
943.04	227.05
943.34	227.10
943.64	227.08
943.94	227.06
944.24	227.05
944.54	227.07
944.84	227.07
945.13	227.04
945.43	227.01
945.73	227.00
946.03	226.99
946.33	226.97
946.62	226.96
946.92	226.97
947.22	226.99
947.52	227.01
947.82	227.03
948.11	227.02
948.41	226.98
948.71	226.93
949.01	226.95
949.31	226.92
949.60	226.90
949.90	226.93
950.20	226.91
950.50	226.92
950.79	226.90
951.09	226.93
951.39	226.92
951.69	226.90
951.98	226.93
952.28	226.94
952.58	226.93
952.87	226.93
953.17	226.96
953.47	226.93
953.76	226.93
954.06	226.89
954.36	226.87
954.66	226.87
954.95	226.90
955.25	226.92
955.55	226.94
955.84	226.91
956.14	226.92
956.44	226.94
956.73	226.91
957.03	226.93
957.32	226.93
957.62	226.92
957.92	226.96
958.21	226.94
958.51	227.14
958.81	227.17
959.10	227.18
959.40	227.22
959.69	227.23
959.99	227.26
960.29	227.26
960.58	227.26
960.88	227.32
961.17	227.31
961.47	227.33
961.76	227.30
962.06	227.36
962.36	227.33
962.65	227.35
962.95	227.35
963.24	227.33
963.54	227.34
963.83	227.36
964.13	227.35
964.42	227.33
964.72	227.19
965.01	227.19
965.31	227.18
965.60	227.13
965.90	227.25
966.19	227.21
966.49	227.22
966.78	227.23
967.08	227.21
967.37	227.21
967.67	227.17
967.96	227.21
968.26	227.18
968.55	227.21
968.85	227.20
969.14	227.19
969.43	227.19
969.73	227.17
970.02	227.15
970.32	227.14
970.61	227.11
970.91	227.06
971.20	227.03
971.49	227.03
971.79	227.04
972.08	226.90
972.38	226.92
972.67	226.90
972.96	226.93
973.26	226.89
973.55	226.94
973.85	226.94
974.14	226.93
974.43	226.95
974.73	226.91
975.02	226.89
975.31	226.90
975.61	226.91
975.90	226.90
976.19	226.89
976.49	226.90
976.78	226.92
977.07	226.92
977.37	226.94
977.66	226.95
977.95	226.93
978.24	226.95
978.54	226.98
978.83	226.97
979.12	226.95
979.42	226.95
979.71	226.91
980.00	226.90
980.29	226.91
980.59	226.87
980.88	226.91
981.17	226.92
981.46	226.92
981.76	226.91
982.05	226.96
982.34	226.97
982.63	226.96
982.93	226.96
983.22	227.00
983.51	227.01
983.80	227.04
984.09	227.06
984.39	227.05
984.68	227.03
984.97	227.05
985.26	227.04
985.55	227.05
985.85	227.02
986.14	227.05
986.43	227.07
986.72	227.06
987.01	227.00
987.30	227.02
987.59	226.99
987.89	226.99
988.18	226.94
988.47	226.92
988.76	226.92
989.05	226.90
989.34	226.87
989.63	226.90
989.92	226.88
990.22	226.86
990.51	226.86
990.80	226.85
991.09	226.86
991.38	226.88
991.67	226.86
991.96	226.86
992.25	226.87
992.54	226.83
992.83	226.84
993.12	226.83
993.41	226.85
993.70	226.93
993.99	226.98
994.28	227.00
994.58	227.03
994.87	227.01
995.16	227.02
995.45	226.99
995.74	226.93
996.03	226.95
996.32	226.97
996.61	227.00
996.90	226.99
997.19	226.98
997.48	226.97
997.77	226.96
998.06	226.95
998.34	226.93
998.63	226.93
998.92	226.94
999.21	226.98
999.50	226.97
999.79	226.92
1000.08	226.89
1000.37	226.89
1000.66	226.87
1000.95	226.91
1001.24	226.92
1001.53	226.95
1001.82	226.95
1002.11	226.90
1002.40	226.90
1002.68	226.94
1002.97	227.08
1003.26	227.07
1003.55	227.05
1003.84	227.08
1004.13	227.14
1004.42	227.13
1004.71	227.13
1004.99	227.12
1005.28	227.15
1005.57	227.13
1005.86	227.11
1006.15	227.10
1006.44	227.08
1006.72	227.10
1007.01	227.07
1007.30	227.07
1007.59	227.04
1007.88	227.04
1008.17	227.06
1008.45	227.03
1008.74	226.95
1009.03	226.86
1009.32	226.87
1009.60	226.86
1009.89	226.83
1010.18	226.76
1010.47	226.75
1010.76	226.76
1011.04	226.76
1011.33	226.74
1011.62	226.75
1011.91	226.75
1012.19	226.76
1012.48	226.77
1012.77	226.76
1013.05	226.82
1013.34	226.83
1013.63	226.84
1013.92	226.84
1014.20	226.83
1014.49	226.84
1014.78	226.86
1015.06	226.80
1015.35	226.80
1015.64	226.82
1015.92	226.86
1016.21	226.87
1016.50	226.87
1016.78	226.89
1017.07	226.90
1017.36	226.88
1017.64	226.86
1017.93	226.89
1018.22	226.88
1018.50	226.88
1018.79	226.87
1019.08	226.80
1019.36	226.80
1019.65	226.79
1019.93	226.84
1020.22	226.87
1020.51	226.96
1020.79	226.94
1021.08	226.65
1021.36	226.58
1021.65	226.84
1021.94	226.74
1022.22	226.88
1022.51	226.61
1022.79	227.58
1023.08	227.13
1023.36	228.97
1023.65	226.49
>>>>>End Processed Spectral Data<<<<<
