SpectraSuite Data File
++++++++++++++++++++++++++++++++++++
Date: Tue Oct 06 16:01:35 EDT 2015
User: lab3
Dark Spectrum Present: No
Reference Spectrum Present: No
Number of Sampled Component Spectra: 1
Spectrometers: USB2E7196
Integration Time (usec): 66000 (USB2E7196)
Spectra Averaged: 1000 (USB2E7196)
Boxcar Smoothing: 10 (USB2E7196)
Correct for Electrical Dark: No (USB2E7196)
Strobe/Lamp Enabled: No (USB2E7196)
Correct for Detector Non-linearity: No (USB2E7196)
Correct for Stray Light: No (USB2E7196)
Number of Pixels in Processed Spectrum: 2048
>>>>>Begin Processed Spectral Data<<<<<
339.09	0.00
339.48	216.27
339.86	217.58
340.24	219.09
340.63	220.41
341.01	224.31
341.39	223.19
341.78	224.79
342.16	225.90
342.54	226.11
342.93	214.61
343.31	225.45
343.69	225.98
344.07	226.44
344.46	226.87
344.84	227.28
345.22	227.48
345.60	227.75
345.99	227.94
346.37	228.07
346.75	228.18
347.13	228.26
347.52	228.34
347.90	228.45
348.28	228.49
348.66	228.56
349.05	228.55
349.43	228.62
349.81	228.69
350.19	228.75
350.57	228.82
350.96	228.92
351.34	229.03
351.72	229.12
352.10	229.23
352.48	229.30
352.87	229.34
353.25	229.40
353.63	229.45
354.01	229.51
354.39	229.59
354.77	229.67
355.15	229.78
355.54	229.82
355.92	229.82
356.30	229.89
356.68	230.07
357.06	230.16
357.44	230.19
357.82	230.24
358.20	230.46
358.58	230.52
358.97	230.59
359.35	230.67
359.73	230.78
360.11	230.83
360.49	230.89
360.87	230.94
361.25	231.01
361.63	231.12
362.01	231.18
362.39	231.21
362.77	231.26
363.15	231.28
363.53	231.32
363.91	231.37
364.29	231.40
364.67	231.25
365.05	231.27
365.43	231.31
365.81	231.35
366.19	231.30
366.57	231.38
366.95	231.38
367.33	231.34
367.71	231.34
368.09	231.39
368.47	231.39
368.85	231.39
369.23	231.42
369.61	231.35
369.99	231.39
370.37	231.39
370.75	231.50
371.13	231.47
371.51	231.42
371.89	231.40
372.27	231.39
372.65	231.37
373.03	231.34
373.41	231.30
373.78	231.25
374.16	231.11
374.54	231.02
374.92	230.97
375.30	230.95
375.68	230.87
376.06	230.82
376.44	230.76
376.82	230.73
377.19	230.67
377.57	230.63
377.95	230.52
378.33	230.46
378.71	230.28
379.09	230.24
379.47	230.23
379.84	230.17
380.22	230.10
380.60	230.02
380.98	229.97
381.36	229.92
381.73	229.85
382.11	229.85
382.49	229.81
382.87	229.75
383.25	229.71
383.62	229.89
384.00	229.81
384.38	229.78
384.76	229.78
385.13	229.79
385.51	229.77
385.89	229.72
386.27	229.69
386.64	229.69
387.02	229.64
387.40	229.59
387.78	229.57
388.15	229.56
388.53	229.54
388.91	229.52
389.29	229.49
389.66	229.50
390.04	229.46
390.42	229.47
390.79	229.48
391.17	229.45
391.55	229.24
391.92	229.24
392.30	229.25
392.68	229.21
393.05	229.19
393.43	229.20
393.81	229.21
394.18	229.20
394.56	229.20
394.94	229.26
395.31	229.26
395.69	229.33
396.06	229.38
396.44	229.43
396.82	229.45
397.19	229.58
397.57	229.60
397.95	229.67
398.32	229.66
398.70	229.72
399.07	229.82
399.45	229.87
399.82	229.95
400.20	230.01
400.58	230.10
400.95	230.12
401.33	230.25
401.70	230.48
402.08	230.62
402.45	230.76
402.83	230.93
403.20	231.10
403.58	231.23
403.95	231.44
404.33	231.66
404.71	231.88
405.08	232.18
405.46	232.43
405.83	232.72
406.21	233.02
406.58	233.35
406.96	233.68
407.33	234.05
407.70	234.47
408.08	235.03
408.45	235.54
408.83	236.08
409.20	236.58
409.58	237.04
409.95	237.67
410.33	238.35
410.70	238.99
411.08	239.74
411.45	240.55
411.82	241.37
412.20	242.30
412.57	243.41
412.95	244.29
413.32	245.45
413.69	246.62
414.07	247.88
414.44	249.25
414.82	250.64
415.19	252.28
415.56	253.94
415.94	255.70
416.31	257.66
416.68	259.62
417.06	261.90
417.43	264.03
417.81	266.47
418.18	268.96
418.55	271.68
418.93	274.53
419.30	277.49
419.67	280.65
420.04	283.89
420.42	287.29
420.79	291.19
421.16	295.13
421.54	299.12
421.91	303.30
422.28	307.64
422.66	312.32
423.03	316.78
423.40	321.45
423.77	326.45
424.15	331.54
424.52	336.83
424.89	342.55
425.26	348.25
425.64	353.54
426.01	359.46
426.38	365.52
426.75	371.75
427.13	378.12
427.50	384.78
427.87	391.69
428.24	398.66
428.61	405.36
428.99	412.56
429.36	420.48
429.73	428.03
430.10	435.56
430.47	443.26
430.85	451.23
431.22	459.71
431.59	468.40
431.96	476.90
432.33	486.34
432.70	495.33
433.08	505.96
433.45	515.99
433.82	525.86
434.19	536.95
434.56	547.86
434.93	558.48
435.30	568.97
435.68	580.90
436.05	592.52
436.42	604.17
436.79	614.83
437.16	626.39
437.53	638.78
437.90	651.14
438.27	663.33
438.64	676.46
439.01	688.37
439.38	699.30
439.75	709.89
440.13	721.95
440.50	733.40
440.87	742.55
441.24	752.63
441.61	763.68
441.98	771.84
442.35	781.52
442.72	791.37
443.09	800.78
443.46	806.90
443.83	811.57
444.20	815.46
444.57	821.08
444.94	824.42
445.31	827.88
445.68	830.87
446.05	833.11
446.42	832.86
446.79	832.36
447.16	831.98
447.53	831.66
447.90	828.16
448.27	824.83
448.64	819.52
449.01	815.89
449.37	808.32
449.74	801.43
450.11	792.52
450.48	782.71
450.85	772.87
451.22	764.41
451.59	756.06
451.96	748.52
452.33	737.56
452.70	727.84
453.07	716.02
453.43	704.24
453.80	692.73
454.17	681.72
454.54	671.55
454.91	660.06
455.28	649.19
455.65	638.96
456.02	628.12
456.38	619.44
456.75	608.27
457.12	599.26
457.49	590.20
457.86	581.57
458.23	573.98
458.59	565.64
458.96	557.08
459.33	549.58
459.70	541.91
460.07	536.07
460.43	529.16
460.80	522.71
461.17	517.09
461.54	511.03
461.91	505.32
462.27	499.54
462.64	494.81
463.01	489.40
463.38	483.95
463.74	479.05
464.11	474.67
464.48	470.73
464.85	466.47
465.21	463.20
465.58	459.59
465.95	455.49
466.32	452.22
466.68	449.01
467.05	445.76
467.42	442.62
467.78	439.27
468.15	436.18
468.52	433.91
468.88	430.92
469.25	428.20
469.62	426.03
469.98	423.66
470.35	421.57
470.72	419.67
471.08	417.75
471.45	416.11
471.82	414.29
472.18	412.41
472.55	411.18
472.92	409.65
473.28	408.46
473.65	407.18
474.02	405.96
474.38	404.94
474.75	404.34
475.11	403.50
475.48	403.11
475.85	402.68
476.21	402.42
476.58	402.23
476.94	402.41
477.31	402.46
477.67	402.55
478.04	402.86
478.41	403.29
478.77	403.91
479.14	404.32
479.50	405.12
479.87	406.13
480.23	407.12
480.60	408.08
480.96	409.05
481.33	410.50
481.69	411.93
482.06	413.35
482.42	414.63
482.79	416.27
483.15	418.15
483.52	420.30
483.88	422.33
484.25	424.47
484.61	426.73
484.98	429.18
485.34	431.91
485.71	434.77
486.07	437.83
486.44	440.84
486.80	444.23
487.17	447.72
487.53	451.48
487.90	455.43
488.26	459.73
488.62	464.25
488.99	468.75
489.35	473.49
489.72	478.58
490.08	483.97
490.44	489.44
490.81	495.16
491.17	501.03
491.54	507.33
491.90	513.78
492.26	520.65
492.63	527.84
492.99	535.35
493.36	543.04
493.72	551.08
494.08	559.35
494.45	568.00
494.81	577.03
495.17	586.31
495.54	596.09
495.90	606.33
496.26	616.74
496.63	627.44
496.99	638.52
497.35	650.12
497.72	662.02
498.08	674.25
498.44	686.73
498.80	699.95
499.17	713.45
499.53	727.42
499.89	741.78
500.26	756.35
500.62	771.26
500.98	786.95
501.34	802.72
501.71	819.27
502.07	836.07
502.43	853.31
502.79	870.78
503.16	888.72
503.52	906.86
503.88	925.41
504.24	944.39
504.60	963.61
504.97	983.43
505.33	1003.67
505.69	1024.93
506.05	1046.39
506.41	1067.66
506.78	1089.12
507.14	1111.20
507.50	1133.66
507.86	1156.48
508.22	1179.52
508.59	1202.40
508.95	1226.34
509.31	1250.69
509.67	1275.68
510.03	1300.58
510.39	1325.35
510.75	1350.20
511.12	1375.42
511.48	1400.65
511.84	1425.93
512.20	1451.56
512.56	1478.06
512.92	1504.39
513.28	1530.13
513.64	1556.25
514.00	1582.65
514.37	1609.33
514.73	1635.90
515.09	1661.81
515.45	1688.02
515.81	1714.29
516.17	1740.23
516.53	1765.55
516.89	1790.81
517.25	1816.29
517.61	1841.53
517.97	1867.36
518.33	1892.50
518.69	1917.46
519.05	1942.88
519.41	1968.36
519.77	1993.70
520.13	2017.70
520.49	2041.80
520.85	2066.17
521.21	2089.91
521.57	2113.93
521.93	2136.97
522.29	2160.57
522.65	2184.06
523.01	2207.21
523.37	2229.66
523.73	2252.85
524.09	2275.68
524.45	2297.98
524.81	2319.61
525.17	2340.97
525.53	2361.77
525.89	2382.85
526.25	2403.53
526.61	2422.74
526.97	2441.87
527.33	2460.86
527.68	2479.43
528.04	2497.60
528.40	2514.39
528.76	2531.55
529.12	2548.32
529.48	2565.42
529.84	2579.88
530.20	2594.77
530.56	2608.72
530.91	2622.94
531.27	2636.56
531.63	2649.17
531.99	2661.64
532.35	2673.66
532.71	2685.26
533.07	2697.06
533.42	2707.04
533.78	2717.35
534.14	2728.48
534.50	2738.49
534.86	2748.93
535.21	2757.41
535.57	2765.69
535.93	2773.96
536.29	2780.51
536.65	2786.70
537.00	2791.45
537.36	2797.60
537.72	2802.62
538.08	2807.15
538.44	2810.74
538.79	2814.00
539.15	2815.91
539.51	2817.19
539.87	2817.43
540.22	2816.21
540.58	2815.20
540.94	2815.21
541.29	2813.82
541.65	2811.08
542.01	2808.00
542.37	2803.52
542.72	2800.49
543.08	2795.89
543.44	2791.44
543.79	2786.37
544.15	2780.75
544.51	2775.52
544.87	2769.08
545.22	2761.85
545.58	2754.56
545.94	2747.40
546.29	2738.77
546.65	2730.49
547.01	2722.19
547.36	2714.17
547.72	2706.40
548.07	2696.91
548.43	2686.45
548.79	2675.81
549.14	2665.57
549.50	2655.39
549.86	2644.32
550.21	2631.74
550.57	2620.10
550.92	2606.88
551.28	2594.28
551.64	2581.86
551.99	2569.09
552.35	2555.98
552.70	2542.81
553.06	2530.12
553.41	2516.84
553.77	2503.42
554.13	2490.11
554.48	2475.84
554.84	2461.06
555.19	2446.72
555.55	2432.24
555.90	2418.06
556.26	2404.25
556.61	2389.30
556.97	2373.51
557.32	2358.13
557.68	2343.14
558.03	2327.94
558.39	2313.56
558.74	2299.69
559.10	2284.10
559.45	2268.94
559.81	2254.49
560.16	2239.63
560.52	2224.63
560.87	2209.78
561.23	2194.61
561.58	2179.87
561.94	2164.68
562.29	2149.01
562.64	2133.54
563.00	2118.30
563.35	2103.15
563.71	2087.69
564.06	2072.44
564.42	2057.73
564.77	2043.02
565.12	2028.11
565.48	2013.04
565.83	1998.29
566.19	1983.49
566.54	1969.05
566.89	1953.87
567.25	1938.53
567.60	1924.12
567.96	1908.77
568.31	1892.57
568.66	1877.35
569.02	1862.57
569.37	1848.36
569.72	1834.77
570.08	1820.75
570.43	1806.13
570.78	1791.39
571.14	1776.48
571.49	1761.64
571.84	1747.09
572.20	1731.55
572.55	1716.79
572.90	1702.09
573.26	1687.23
573.61	1671.81
573.96	1656.92
574.31	1641.92
574.67	1626.92
575.02	1611.55
575.37	1596.37
575.72	1581.76
576.08	1566.98
576.43	1551.71
576.78	1536.47
577.13	1521.42
577.49	1506.63
577.84	1492.30
578.19	1477.50
578.54	1462.81
578.90	1448.14
579.25	1433.38
579.60	1419.63
579.95	1405.63
580.30	1391.55
580.66	1377.28
581.01	1363.16
581.36	1349.17
581.71	1335.89
582.06	1322.54
582.42	1309.09
582.77	1296.15
583.12	1283.39
583.47	1270.52
583.82	1257.86
584.17	1244.86
584.53	1231.94
584.88	1219.22
585.23	1206.38
585.58	1193.95
585.93	1181.53
586.28	1169.94
586.63	1158.17
586.98	1146.13
587.34	1134.42
587.69	1122.58
588.04	1111.18
588.39	1099.93
588.74	1088.29
589.09	1076.82
589.44	1065.13
589.79	1053.96
590.14	1042.81
590.49	1031.80
590.84	1021.01
591.19	1010.40
591.54	999.98
591.89	989.15
592.25	978.74
592.60	968.18
592.95	957.82
593.30	947.67
593.65	937.31
594.00	927.22
594.35	917.95
594.70	908.05
595.05	898.74
595.40	889.19
595.75	879.55
596.10	870.52
596.45	861.49
596.80	852.76
597.15	844.10
597.50	835.44
597.85	826.89
598.19	818.39
598.54	809.94
598.89	801.91
599.24	794.26
599.59	786.44
599.94	779.20
600.29	771.95
600.64	764.60
600.99	757.14
601.34	749.89
601.69	742.19
602.04	735.29
602.39	728.29
602.74	721.45
603.08	714.81
603.43	708.08
603.78	701.34
604.13	694.72
604.48	688.18
604.83	681.81
605.18	675.53
605.53	669.36
605.87	663.17
606.22	657.09
606.57	650.97
606.92	644.72
607.27	638.55
607.62	632.58
607.96	626.86
608.31	621.55
608.66	616.17
609.01	611.01
609.36	605.83
609.70	600.57
610.05	595.40
610.40	590.35
610.75	585.31
611.10	580.48
611.44	575.65
611.79	570.88
612.14	566.07
612.49	561.35
612.83	556.86
613.18	552.42
613.53	547.98
613.88	543.69
614.22	539.72
614.57	535.64
614.92	531.64
615.27	527.75
615.61	523.76
615.96	519.81
616.31	515.87
616.65	512.10
617.00	508.43
617.35	504.82
617.70	501.19
618.04	497.67
618.39	494.25
618.74	491.06
619.08	487.84
619.43	484.71
619.78	481.52
620.12	478.37
620.47	475.43
620.82	472.52
621.16	469.59
621.51	466.72
621.85	463.88
622.20	461.11
622.55	458.29
622.89	455.53
623.24	452.95
623.59	450.39
623.93	447.91
624.28	445.56
624.62	443.42
624.97	441.26
625.32	439.01
625.66	436.72
626.01	434.41
626.35	432.21
626.70	429.95
627.04	427.89
627.39	425.79
627.73	423.74
628.08	421.79
628.43	419.85
628.77	417.84
629.12	415.97
629.46	414.16
629.81	412.47
630.15	410.71
630.50	408.96
630.84	407.26
631.19	405.59
631.53	403.97
631.88	402.17
632.22	400.51
632.57	399.12
632.91	397.66
633.26	396.26
633.60	394.90
633.95	393.61
634.29	392.19
634.64	390.83
634.98	389.33
635.32	388.02
635.67	386.80
636.01	385.60
636.36	384.44
636.70	383.37
637.05	382.14
637.39	381.05
637.73	379.94
638.08	378.91
638.42	377.92
638.77	376.80
639.11	375.65
639.45	374.52
639.80	373.32
640.14	372.22
640.49	371.12
640.83	370.00
641.17	368.95
641.52	367.93
641.86	366.92
642.20	366.08
642.55	365.05
642.89	364.02
643.23	363.07
643.58	362.19
643.92	361.18
644.26	360.25
644.61	359.37
644.95	358.43
645.29	357.43
645.64	356.39
645.98	355.48
646.32	354.68
646.66	353.83
647.01	352.98
647.35	352.23
647.69	351.45
648.04	350.74
648.38	349.95
648.72	349.21
649.06	348.46
649.41	347.64
649.75	346.90
650.09	346.21
650.43	345.47
650.78	344.72
651.12	343.98
651.46	343.24
651.80	342.54
652.14	341.89
652.49	341.29
652.83	340.61
653.17	339.91
653.51	339.23
653.85	338.66
654.20	338.04
654.54	337.31
654.88	336.61
655.22	335.97
655.56	335.29
655.90	334.64
656.25	334.02
656.59	333.41
656.93	332.83
657.27	332.29
657.61	331.66
657.95	331.11
658.29	330.54
658.64	330.02
658.98	329.41
659.32	328.82
659.66	328.26
660.00	327.74
660.34	327.23
660.68	326.65
661.02	326.00
661.36	325.41
661.70	324.87
662.05	324.35
662.39	323.82
662.73	323.38
663.07	322.96
663.41	322.49
663.75	321.97
664.09	321.44
664.43	320.82
664.77	320.32
665.11	319.73
665.45	319.21
665.79	318.69
666.13	318.15
666.47	317.61
666.81	317.04
667.15	316.46
667.49	315.98
667.83	315.55
668.17	315.11
668.51	314.69
668.85	314.27
669.19	313.91
669.53	313.37
669.87	312.83
670.21	312.29
670.55	311.78
670.89	311.38
671.23	310.97
671.57	310.58
671.91	310.21
672.25	309.87
672.58	309.53
672.92	309.08
673.26	308.73
673.60	308.35
673.94	307.99
674.28	307.65
674.62	307.25
674.96	306.81
675.30	306.41
675.64	305.97
675.97	305.51
676.31	305.03
676.65	304.60
676.99	304.28
677.33	303.83
677.67	303.44
678.01	302.95
678.34	302.50
678.68	302.10
679.02	301.64
679.36	301.19
679.70	300.73
680.04	300.35
680.37	299.95
680.71	299.57
681.05	299.18
681.39	298.75
681.73	298.29
682.06	297.86
682.40	297.46
682.74	297.11
683.08	296.79
683.42	296.41
683.75	296.05
684.09	295.58
684.43	295.17
684.77	294.74
685.10	294.35
685.44	293.97
685.78	293.57
686.12	293.18
686.45	292.76
686.79	292.32
687.13	291.90
687.46	291.44
687.80	291.02
688.14	290.54
688.48	290.13
688.81	289.71
689.15	289.38
689.49	288.94
689.82	288.50
690.16	287.97
690.50	287.51
690.83	287.08
691.17	286.63
691.51	286.22
691.84	285.85
692.18	285.43
692.52	284.97
692.85	284.52
693.19	284.14
693.52	283.72
693.86	283.31
694.20	282.88
694.53	282.46
694.87	282.01
695.21	281.58
695.54	281.15
695.88	280.70
696.21	280.20
696.55	279.77
696.88	279.34
697.22	278.93
697.56	278.53
697.89	278.07
698.23	277.69
698.56	277.25
698.90	276.83
699.23	276.38
699.57	275.98
699.90	275.57
700.24	275.11
700.58	274.71
700.91	274.36
701.25	274.14
701.58	273.83
701.92	273.50
702.25	273.14
702.59	272.75
702.92	272.37
703.26	271.97
703.59	271.60
703.93	271.37
704.26	271.01
704.60	270.63
704.93	270.25
705.26	269.86
705.60	269.54
705.93	269.14
706.27	268.84
706.60	268.54
706.94	268.23
707.27	267.86
707.61	267.50
707.94	267.10
708.27	266.57
708.61	266.14
708.94	265.74
709.28	265.38
709.61	265.02
709.94	264.70
710.28	264.39
710.61	264.07
710.95	263.59
711.28	263.36
711.61	263.03
711.95	262.75
712.28	262.42
712.61	262.08
712.95	261.85
713.28	261.59
713.61	261.22
713.95	260.85
714.28	260.56
714.61	260.22
714.95	259.92
715.28	259.61
715.61	259.34
715.95	259.07
716.28	258.77
716.61	258.52
716.95	258.21
717.28	257.93
717.61	257.63
717.94	257.36
718.28	256.96
718.61	256.69
718.94	256.36
719.27	256.09
719.61	255.85
719.94	255.55
720.27	255.20
720.60	254.96
720.94	254.70
721.27	254.44
721.60	254.23
721.93	253.97
722.27	253.75
722.60	253.50
722.93	253.23
723.26	253.01
723.59	252.73
723.93	252.52
724.26	252.31
724.59	252.07
724.92	251.86
725.25	251.70
725.59	251.48
725.92	251.29
726.25	251.07
726.58	250.84
726.91	250.61
727.24	250.41
727.57	250.19
727.91	249.96
728.24	249.79
728.57	249.55
728.90	249.37
729.23	249.12
729.56	249.02
729.89	248.83
730.22	248.62
730.55	248.43
730.89	248.24
731.22	248.03
731.55	247.85
731.88	247.67
732.21	247.44
732.54	247.25
732.87	247.07
733.20	246.92
733.53	246.75
733.86	246.59
734.19	246.40
734.52	246.26
734.85	246.22
735.18	246.03
735.51	245.94
735.84	245.79
736.17	245.68
736.50	245.43
736.83	245.45
737.16	245.30
737.49	245.15
737.82	244.96
738.15	244.82
738.48	244.66
738.81	244.49
739.14	244.33
739.47	244.17
739.80	244.02
740.13	243.87
740.46	243.68
740.79	243.50
741.12	243.34
741.45	243.15
741.78	242.90
742.11	242.81
742.44	242.60
742.77	242.47
743.10	242.29
743.43	242.14
743.75	241.82
744.08	241.96
744.41	241.80
744.74	241.66
745.07	241.49
745.40	241.38
745.73	241.33
746.06	241.20
746.39	241.10
746.71	240.95
747.04	240.80
747.37	240.68
747.70	240.58
748.03	240.46
748.36	240.38
748.68	240.26
749.01	240.09
749.34	239.97
749.67	239.85
750.00	239.77
750.33	239.79
750.65	239.69
750.98	239.32
751.31	239.22
751.64	239.13
751.97	239.11
752.29	238.98
752.62	238.79
752.95	238.67
753.28	238.54
753.60	238.41
753.93	238.36
754.26	238.27
754.59	238.12
754.91	238.01
755.24	237.88
755.57	237.78
755.90	237.67
756.22	237.56
756.55	237.43
756.88	237.28
757.20	237.06
757.53	236.91
757.86	236.81
758.19	236.73
758.51	236.62
758.84	236.45
759.17	236.35
759.49	236.27
759.82	236.27
760.15	236.19
760.47	236.10
760.80	235.95
761.13	235.88
761.45	235.79
761.78	235.70
762.11	235.63
762.43	235.53
762.76	235.43
763.08	235.37
763.41	235.31
763.74	235.24
764.06	235.15
764.39	235.08
764.71	235.00
765.04	234.90
765.37	234.81
765.69	234.72
766.02	234.65
766.34	234.56
766.67	234.43
767.00	234.40
767.32	234.43
767.65	234.48
767.97	234.40
768.30	234.36
768.62	234.30
768.95	234.22
769.27	234.15
769.60	234.13
769.92	234.05
770.25	233.95
770.57	233.86
770.90	233.81
771.22	233.74
771.55	233.70
771.87	233.67
772.20	233.61
772.52	233.72
772.85	233.88
773.17	233.83
773.50	233.76
773.82	233.68
774.15	233.54
774.47	233.38
774.80	233.31
775.12	233.25
775.45	233.21
775.77	233.17
776.09	233.14
776.42	233.08
776.74	233.08
777.07	233.04
777.39	233.01
777.72	232.96
778.04	232.94
778.36	232.88
778.69	232.85
779.01	232.82
779.33	232.63
779.66	232.38
779.98	232.34
780.31	232.30
780.63	232.34
780.95	232.34
781.28	232.29
781.60	232.26
781.92	232.22
782.25	232.18
782.57	232.15
782.89	232.10
783.22	232.06
783.54	232.00
783.86	231.98
784.19	231.93
784.51	231.96
784.83	231.91
785.16	231.88
785.48	231.83
785.80	231.80
786.12	231.78
786.45	231.76
786.77	231.75
787.09	231.69
787.42	231.60
787.74	231.57
788.06	231.56
788.38	231.53
788.71	231.48
789.03	231.47
789.35	231.46
789.67	231.41
789.99	231.39
790.32	231.35
790.64	231.34
790.96	231.49
791.28	231.40
791.61	231.37
791.93	231.36
792.25	231.33
792.57	231.43
792.89	231.37
793.21	231.36
793.54	231.32
793.86	231.30
794.18	231.29
794.50	231.23
794.82	231.19
795.14	231.18
795.47	231.19
795.79	231.17
796.11	231.12
796.43	231.10
796.75	231.07
797.07	231.06
797.39	231.01
797.71	230.85
798.04	230.83
798.36	230.82
798.68	230.79
799.00	230.78
799.32	230.67
799.64	230.69
799.96	230.66
800.28	230.67
800.60	230.64
800.92	230.63
801.24	230.61
801.56	230.62
801.89	230.59
802.21	230.58
802.53	230.52
802.85	230.54
803.17	230.60
803.49	230.55
803.81	230.52
804.13	230.50
804.45	230.46
804.77	230.46
805.09	230.44
805.41	230.40
805.73	230.35
806.05	230.29
806.37	230.25
806.69	230.22
807.01	230.18
807.33	230.19
807.65	230.11
807.97	230.17
808.28	230.13
808.60	230.11
808.92	230.08
809.24	230.19
809.56	230.13
809.88	230.06
810.20	230.05
810.52	230.07
810.84	230.05
811.16	230.02
811.48	229.99
811.80	230.04
812.12	230.03
812.43	230.06
812.75	230.06
813.07	230.03
813.39	230.03
813.71	230.00
814.03	229.97
814.35	229.96
814.67	229.88
814.98	229.86
815.30	229.83
815.62	229.79
815.94	229.65
816.26	229.67
816.58	229.63
816.89	229.63
817.21	229.59
817.53	229.59
817.85	229.59
818.17	229.59
818.48	229.51
818.80	229.55
819.12	229.51
819.44	229.47
819.76	229.45
820.07	229.43
820.39	229.42
820.71	229.42
821.03	229.40
821.34	229.39
821.66	229.40
821.98	229.42
822.30	229.41
822.61	229.52
822.93	229.48
823.25	229.47
823.57	229.44
823.88	229.45
824.20	229.43
824.52	229.44
824.83	229.42
825.15	229.40
825.47	229.37
825.79	229.38
826.10	229.37
826.42	229.36
826.74	229.36
827.05	229.35
827.37	229.35
827.69	229.33
828.00	229.32
828.32	229.31
828.64	229.27
828.95	229.36
829.27	229.29
829.58	229.29
829.90	229.30
830.22	229.32
830.53	229.28
830.85	229.25
831.17	229.21
831.48	229.19
831.80	229.19
832.11	229.17
832.43	229.14
832.75	229.14
833.06	229.23
833.38	229.19
833.69	229.17
834.01	229.17
834.32	229.16
834.64	229.14
834.96	229.12
835.27	229.12
835.59	229.06
835.90	229.03
836.22	229.03
836.53	228.99
836.85	228.96
837.16	229.12
837.48	229.13
837.79	229.18
838.11	229.18
838.42	229.17
838.74	229.19
839.05	229.17
839.37	229.15
839.68	229.03
840.00	229.02
840.31	229.05
840.63	229.03
840.94	229.01
841.26	229.00
841.57	229.00
841.88	229.01
842.20	228.97
842.51	228.93
842.83	228.93
843.14	229.09
843.46	229.07
843.77	228.97
844.08	228.97
844.40	228.91
844.71	228.88
845.03	228.86
845.34	228.84
845.65	228.84
845.97	228.85
846.28	228.87
846.60	228.86
846.91	228.82
847.22	228.82
847.54	228.85
847.85	228.86
848.16	228.84
848.48	228.81
848.79	228.87
849.10	228.90
849.42	228.89
849.73	228.73
850.04	228.73
850.36	228.67
850.67	228.69
850.98	228.69
851.30	228.72
851.61	228.71
851.92	228.70
852.23	228.75
852.55	228.77
852.86	228.76
853.17	228.77
853.49	228.81
853.80	228.83
854.11	228.84
854.42	228.86
854.74	228.84
855.05	228.85
855.36	228.75
855.67	228.75
855.99	228.76
856.30	228.96
856.61	228.94
856.92	228.95
857.23	228.94
857.55	228.91
857.86	228.90
858.17	228.92
858.48	228.89
858.79	228.85
859.11	228.86
859.42	228.85
859.73	228.83
860.04	228.82
860.35	228.77
860.66	228.72
860.98	228.69
861.29	228.71
861.60	228.70
861.91	228.74
862.22	228.71
862.53	228.67
862.84	228.46
863.16	228.50
863.47	228.47
863.78	228.45
864.09	228.47
864.40	228.48
864.71	228.48
865.02	228.50
865.33	228.48
865.64	228.44
865.95	228.42
866.27	228.54
866.58	228.51
866.89	228.53
867.20	228.54
867.51	228.50
867.82	228.50
868.13	228.55
868.44	228.51
868.75	228.55
869.06	228.56
869.37	228.59
869.68	228.54
869.99	228.58
870.30	228.59
870.61	228.59
870.92	228.56
871.23	228.55
871.54	228.57
871.85	228.63
872.16	228.65
872.47	228.64
872.78	228.54
873.09	228.54
873.40	228.53
873.71	228.54
874.02	228.56
874.33	228.53
874.64	228.50
874.95	228.53
875.26	228.47
875.56	228.47
875.87	228.44
876.18	228.44
876.49	228.60
876.80	228.58
877.11	228.54
877.42	228.55
877.73	228.56
878.04	228.52
878.35	228.50
878.66	228.49
878.96	228.49
879.27	228.49
879.58	228.48
879.89	228.47
880.20	228.52
880.51	228.51
880.82	228.52
881.12	228.52
881.43	228.48
881.74	228.48
882.05	228.47
882.36	228.49
882.67	228.50
882.97	228.32
883.28	228.31
883.59	228.30
883.90	228.31
884.21	228.32
884.51	228.31
884.82	228.28
885.13	228.29
885.44	228.28
885.74	228.29
886.05	228.27
886.36	228.27
886.67	228.19
886.98	228.29
887.28	228.30
887.59	228.30
887.90	228.31
888.20	228.28
888.51	228.30
888.82	228.28
889.13	228.29
889.43	228.44
889.74	228.43
890.05	228.45
890.35	228.42
890.66	228.40
890.97	228.39
891.28	228.38
891.58	228.37
891.89	228.38
892.20	228.35
892.50	228.34
892.81	228.34
893.12	228.33
893.42	228.24
893.73	228.24
894.04	228.23
894.34	228.25
894.65	228.26
894.95	228.25
895.26	228.26
895.57	228.34
895.87	228.17
896.18	228.20
896.48	228.21
896.79	228.20
897.10	228.24
897.40	228.24
897.71	228.26
898.01	228.24
898.32	228.26
898.63	228.26
898.93	228.28
899.24	228.28
899.54	228.28
899.85	228.27
900.15	228.27
900.46	228.27
900.76	228.27
901.07	228.27
901.38	228.26
901.68	228.28
901.99	228.18
902.29	228.18
902.60	228.16
902.90	228.15
903.21	228.15
903.51	228.12
903.82	228.16
904.12	228.16
904.43	228.18
904.73	228.17
905.03	228.18
905.34	228.35
905.64	228.34
905.95	228.34
906.25	228.34
906.56	228.34
906.86	228.34
907.17	228.33
907.47	228.34
907.77	228.32
908.08	228.28
908.38	228.31
908.69	228.34
908.99	228.37
909.30	228.38
909.60	228.38
909.90	228.38
910.21	228.33
910.51	228.30
910.81	228.30
911.12	228.31
911.42	228.31
911.73	228.13
912.03	228.15
912.33	228.19
912.64	228.17
912.94	228.16
913.24	228.12
913.55	228.11
913.85	228.09
914.15	228.13
914.46	228.17
914.76	228.14
915.06	228.11
915.37	228.08
915.67	228.06
915.97	228.06
916.27	228.03
916.58	228.04
916.88	228.03
917.18	228.03
917.49	228.13
917.79	228.13
918.09	228.16
918.39	228.20
918.70	228.18
919.00	228.19
919.30	228.28
919.60	228.28
919.91	228.25
920.21	228.26
920.51	228.23
920.81	228.22
921.12	228.26
921.42	228.26
921.72	228.27
922.02	228.29
922.32	228.31
922.63	228.33
922.93	228.43
923.23	228.46
923.53	228.44
923.83	228.33
924.13	228.34
924.44	228.32
924.74	228.35
925.04	228.38
925.34	228.39
925.64	228.30
925.94	228.31
926.24	228.42
926.55	228.41
926.85	228.43
927.15	228.43
927.45	228.42
927.75	228.43
928.05	228.42
928.35	228.40
928.65	228.42
928.95	228.43
929.26	228.34
929.56	228.37
929.86	228.40
930.16	228.38
930.46	228.36
930.76	228.37
931.06	228.29
931.36	228.23
931.66	228.26
931.96	228.29
932.26	228.30
932.56	228.23
932.86	228.23
933.16	228.23
933.46	228.21
933.76	228.18
934.06	228.20
934.36	228.26
934.66	228.27
934.96	228.24
935.26	228.24
935.56	228.26
935.86	228.21
936.16	228.18
936.46	228.18
936.76	228.16
937.06	228.14
937.36	228.16
937.66	228.17
937.96	228.16
938.26	228.12
938.56	228.11
938.86	228.11
939.16	228.15
939.46	228.16
939.76	228.18
940.06	228.18
940.35	228.16
940.65	228.06
940.95	228.07
941.25	228.03
941.55	228.02
941.85	228.00
942.15	228.05
942.45	228.09
942.75	228.09
943.04	228.10
943.34	228.13
943.64	228.11
943.94	228.08
944.24	228.07
944.54	228.08
944.84	228.07
945.13	228.05
945.43	228.01
945.73	228.00
946.03	227.97
946.33	227.95
946.62	227.94
946.92	227.95
947.22	227.95
947.52	227.96
947.82	227.97
948.11	227.95
948.41	227.90
948.71	227.85
949.01	227.87
949.31	227.85
949.60	227.82
949.90	227.85
950.20	227.85
950.50	227.84
950.79	227.83
951.09	227.85
951.39	227.86
951.69	227.85
951.98	227.88
952.28	227.89
952.58	227.89
952.87	227.89
953.17	227.92
953.47	227.90
953.76	227.90
954.06	227.87
954.36	227.84
954.66	227.85
954.95	227.90
955.25	227.91
955.55	227.93
955.84	227.91
956.14	227.92
956.44	227.92
956.73	227.90
957.03	227.91
957.32	227.92
957.62	227.91
957.92	227.94
958.21	227.93
958.51	228.12
958.81	228.15
959.10	228.16
959.40	228.20
959.69	228.20
959.99	228.23
960.29	228.23
960.58	228.23
960.88	228.30
961.17	228.28
961.47	228.29
961.76	228.27
962.06	228.31
962.36	228.29
962.65	228.30
962.95	228.32
963.24	228.30
963.54	228.30
963.83	228.32
964.13	228.31
964.42	228.29
964.72	228.14
965.01	228.14
965.31	228.13
965.60	228.08
965.90	228.20
966.19	228.17
966.49	228.18
966.78	228.18
967.08	228.15
967.37	228.15
967.67	228.10
967.96	228.14
968.26	228.13
968.55	228.15
968.85	228.15
969.14	228.13
969.43	228.14
969.73	228.12
970.02	228.11
970.32	228.08
970.61	228.05
970.91	228.01
971.20	227.99
971.49	227.98
971.79	228.00
972.08	227.86
972.38	227.89
972.67	227.88
972.96	227.91
973.26	227.88
973.55	227.93
973.85	227.93
974.14	227.91
974.43	227.92
974.73	227.89
975.02	227.87
975.31	227.87
975.61	227.88
975.90	227.87
976.19	227.86
976.49	227.88
976.78	227.89
977.07	227.89
977.37	227.90
977.66	227.92
977.95	227.89
978.24	227.91
978.54	227.93
978.83	227.91
979.12	227.91
979.42	227.90
979.71	227.88
980.00	227.88
980.29	227.88
980.59	227.85
980.88	227.89
981.17	227.89
981.46	227.89
981.76	227.88
982.05	227.93
982.34	227.95
982.63	227.95
982.93	227.96
983.22	228.00
983.51	228.01
983.80	228.05
984.09	228.07
984.39	228.06
984.68	228.04
984.97	228.06
985.26	228.04
985.55	228.06
985.85	228.02
986.14	228.05
986.43	228.07
986.72	228.06
987.01	228.01
987.30	228.02
987.59	228.01
987.89	228.02
988.18	227.98
988.47	227.96
988.76	227.94
989.05	227.92
989.34	227.89
989.63	227.92
989.92	227.88
990.22	227.85
990.51	227.85
990.80	227.84
991.09	227.84
991.38	227.87
991.67	227.85
991.96	227.84
992.25	227.85
992.54	227.82
992.83	227.82
993.12	227.81
993.41	227.85
993.70	227.93
993.99	227.96
994.28	227.98
994.58	228.01
994.87	227.99
995.16	227.99
995.45	227.98
995.74	227.92
996.03	227.95
996.32	227.99
996.61	228.02
996.90	228.03
997.19	228.03
997.48	228.02
997.77	228.01
998.06	228.03
998.34	228.01
998.63	228.01
998.92	228.02
999.21	228.06
999.50	228.05
999.79	227.97
1000.08	227.96
1000.37	227.96
1000.66	227.94
1000.95	227.99
1001.24	228.01
1001.53	228.03
1001.82	228.03
1002.11	227.99
1002.40	227.99
1002.68	228.03
1002.97	228.15
1003.26	228.12
1003.55	228.10
1003.84	228.11
1004.13	228.17
1004.42	228.15
1004.71	228.16
1004.99	228.16
1005.28	228.19
1005.57	228.17
1005.86	228.17
1006.15	228.16
1006.44	228.13
1006.72	228.16
1007.01	228.13
1007.30	228.12
1007.59	228.10
1007.88	228.11
1008.17	228.13
1008.45	228.09
1008.74	228.00
1009.03	227.92
1009.32	227.93
1009.60	227.93
1009.89	227.91
1010.18	227.84
1010.47	227.83
1010.76	227.83
1011.04	227.82
1011.33	227.81
1011.62	227.83
1011.91	227.84
1012.19	227.85
1012.48	227.86
1012.77	227.84
1013.05	227.90
1013.34	227.91
1013.63	227.90
1013.92	227.92
1014.20	227.91
1014.49	227.93
1014.78	227.95
1015.06	227.90
1015.35	227.90
1015.64	227.91
1015.92	227.93
1016.21	227.95
1016.50	227.96
1016.78	227.98
1017.07	227.99
1017.36	227.97
1017.64	227.93
1017.93	227.94
1018.22	227.92
1018.50	227.92
1018.79	227.91
1019.08	227.85
1019.36	227.84
1019.65	227.83
1019.93	227.87
1020.22	227.88
1020.51	227.97
1020.79	227.94
1021.08	227.53
1021.36	227.58
1021.65	227.90
1021.94	227.68
1022.22	227.90
1022.51	227.52
1022.79	228.77
1023.08	228.07
1023.36	229.92
1023.65	227.47
>>>>>End Processed Spectral Data<<<<<
